TimeStamp,Delta_TP9,Delta_AF7,Delta_AF8,Delta_TP10,Theta_TP9,Theta_AF7,Theta_AF8,Theta_TP10,Alpha_TP9,Alpha_AF7,Alpha_AF8,Alpha_TP10,Beta_TP9,Beta_AF7,Beta_AF8,Beta_TP10,Gamma_TP9,Gamma_AF7,Gamma_AF8,Gamma_TP10,RAW_TP9,RAW_AF7,RAW_AF8,RAW_TP10,AUX_RIGHT,Mellow,Concentration,Accelerometer_X,Accelerometer_Y,Accelerometer_Z,Gyro_X,Gyro_Y,Gyro_Z,HeadBandOn,HSI_TP9,HSI_AF7,HSI_AF8,HSI_TP10,Battery,emotion
32:39.6,0.11829323,0.24966058,-0.19587041,-0.08501822,0.09253726,0.07500916,0.038194943,0.0368005,0.8908908,0.3671817,-0.04657506,0.6558554,0.44402215,0.12984519,0.1014241,0.39556047,-0.18327934,-0.56422436,-0.42986628,0.075089365,745.42126,791.3553,782.8938,790.14655,784.90845,0,0,-0.149902344,0.175354004,0.971252441,3.304748535,-4.314117432,-1.413116455,1,1,1,1,1,40,sad
32:40.6,0.6794859,0.18733062,0.13130234,0.69024426,0.30925614,-0.048129354,0.03825547,0.31582925,0.64218915,0.40323377,0.16153987,0.5312183,0.40044957,-0.015324055,0.009210665,0.30228394,-0.18191586,-0.44716242,-0.3180174,0.12638876,823.9927,771.2088,790.54944,814.7253,981.9414,0,0,-0.15222168,0.182617188,0.969238281,4.411315918,-5.330963135,-2.519683838,1,1,1,1,1,40,sad
32:41.6,0.9464116,0.41420907,0.22842392,0.849177,0.6204524,-0.026618501,0.06925819,0.55308247,0.4625954,0.335003,0.1554664,0.68827385,0.43480352,0.024594197,-0.050978217,0.3885838,0.112644784,-0.001357311,-0.21490248,0.25898477,805.4579,804.2491,789.34064,796.5934,714.7985,0,0,-0.152099609,0.176147461,0.971130371,3.790740967,-4.291687012,-1.286010742,1,1,1,1,1,40,sad
32:42.7,0.31317714,0.18121456,-0.1398541,0.13026544,0.26544976,-0.1134249,-0.33031178,0.22133705,0.41163945,0.27004132,0.24139707,0.8475069,0.18378234,0.10081234,-7.02E-04,0.4387132,0.07960859,-0.01970878,-0.30967864,0.21398766,859.85345,801.02563,782.49084,817.1429,852.1978,0,0,-0.159423828,0.176330566,0.970825195,3.521575928,-4.231872559,-1.600036621,1,1,1,1,1,40,sad
32:43.7,-0.4350615,-0.3226788,-0.34151837,-0.072743036,-0.005514113,0.15850773,-0.49993226,0.1408789,0.4692679,0.18421142,0.15358302,0.78709847,0.14415409,0.059867214,0.07375358,0.29655722,-0.09112743,-0.21028993,-0.5230542,0.3043068,749.85345,791.75824,788.93774,782.8938,628.5714,6,6,-0.156860352,0.175598145,0.967651367,3.274841309,-4.665527344,-1.712188721,1,1,1,1,1,40,sad
32:44.7,-0.3241527,-0.11194412,-0.28290516,-0.15177995,0.03590123,0.19902286,-0.21758324,-0.047089588,0.69537306,0.15877768,-0.009210009,0.7365769,0.21482712,0.040628873,-0.051543567,0.34639066,-0.31600156,-0.379366,-0.45619157,-0.026142638,799.81683,796.5934,785.31134,808.2784,737.3626,25.999996,6,-0.161071777,0.17578125,0.972351074,3.753356934,-4.074859619,-1.674804688,1,1,1,1,1,40,sad
32:45.7,-0.19813398,-0.026657727,-0.22779809,0.01833957,0.010463925,0.19867463,-0.22212048,0.091367684,0.68041474,0.24751541,0.14744863,0.7766449,0.2907595,0.11767169,-0.03956841,0.36816478,-0.23924436,-0.5208002,-0.43623453,-0.024534266,850.989,796.1905,783.69965,817.9487,830.0366,46.000008,0,-0.156494141,0.183105469,0.973327637,3.177642822,-4.710388184,-1.263580322,1,1,1,1,1,40,sad
32:46.8,1.0866058,0.083761886,-0.11970105,0.93327355,0.7683476,0.042675294,-0.12351516,0.56277,0.5872272,0.26734802,0.1892278,0.6724233,0.37025082,0.08559699,0.053205505,0.35201758,-0.3049646,-0.3280673,-0.46405706,-0.08809906,750.65936,800.2198,778.86444,786.52014,671.685,36,0,-0.158996582,0.177246094,0.973876953,2.923431396,-3.932800293,-1.786956787,1,1,1,1,1,40,sad
32:47.8,0.52603245,0.28869015,-0.095000215,0.45164257,0.14271928,0.22275184,-0.08914705,0.3190903,0.46634406,0.3751553,0.050406702,0.5780151,0.22069272,-0.04201086,-0.002686311,0.2441309,-0.37184033,-0.4361849,-0.21254393,-0.18044274,860.2564,798.60803,790.54944,821.5751,931.5751,15.999995,0,-0.157104492,0.176635742,0.975769043,3.155212402,-4.224395752,-1.637420654,1,1,1,1,1,40,sad
32:48.8,0.27778518,0.38417554,-0.025637375,0.30493408,0.18893088,0.24018356,-0.25454962,0.34356186,0.32711002,0.37000582,-0.24293593,0.38170958,0.20496745,0.0509641,0.11907613,0.31816968,-0.31460908,-0.5150531,-0.25472996,-0.03017733,779.2674,798.20514,794.9817,813.5165,638.6447,9.999996,0,-0.15246582,0.177856445,0.967834473,3.401947021,-3.648681641,-2.00378418,1,1,1,1,1,40,sad
32:49.8,0.28321466,0.07584534,-0.5419895,0.21842839,0.102816835,0.27425903,-0.4213114,0.19609152,0.26936057,0.5103614,-0.13729085,0.30508587,0.2830206,0.021216461,0.085745916,0.46444663,-0.23381501,-0.3804921,-0.30861998,0.16339031,844.5421,796.99634,787.72894,808.68134,824.3956,0,4,-0.151733398,0.16998291,0.971191406,3.656158447,-4.426269531,-1.577606201,1,1,1,1,1,40,sad
32:50.8,-0.19333814,0.170786,-0.29906204,-0.14185454,0.027888302,0.03950317,-0.17614476,0.16257158,0.6755639,0.4712524,0.44798142,0.5639813,0.29606837,-0.115559064,0.010976622,0.5269937,-0.2041925,-0.33580467,-0.40814266,0.039093588,759.5238,805.05493,793.36993,805.4579,610.4396,6,0,-0.149047852,0.177429199,0.974304199,3.379516602,-4.478607178,-1.629943848,1,1,1,1,1,40,sad
32:51.9,-0.2892957,-0.019483773,-0.21445067,-0.064865835,0.030291425,-0.054481566,-0.23695211,0.15978928,0.6307339,0.29978058,0.41635516,0.5547929,0.20949246,-0.034586728,0.026117323,0.33372706,-0.17354444,-0.463853,-0.4258321,0.012797082,869.92676,799.011,789.34064,829.2308,1106.044,25.999996,0,-0.143127441,0.174987793,0.971252441,3.633728027,-3.977661133,-1.629943848,1,1,1,1,1,40,sad
32:52.9,-0.33212307,0.018214522,-0.08964171,0.12665413,0.1722584,0.039264355,-0.005394511,0.110524625,0.5683952,0.10227321,0.05900207,0.46040887,0.2086053,-0.04389446,0.006490632,0.17549394,-0.16925626,-0.36125165,-0.27474746,-0.047016423,784.90845,805.4579,790.9524,809.0842,763.95605,44.000008,0,-0.145202637,0.17388916,0.974060059,3.469238281,-4.613189697,-1.839294434,1,1,1,1,1,40,sad
32:53.9,-0.24792199,0.10751244,0.12707202,0.13268536,0.15365295,-0.196856,0.122092746,-0.104643,0.46659938,-0.011296583,0.056383945,0.5025848,0.23053649,0.19553126,0.005246315,0.46334258,-0.11972919,-0.40236962,-0.2043845,-0.039742168,848.5714,800.6227,788.1319,808.2784,751.06226,50.000008,0,-0.147827148,0.174743652,0.971862793,3.237457275,-4.037475586,-1.772003174,1,1,1,1,1,40,sad
32:54.9,-0.08663965,0.240103,-0.015603239,0.22586614,0.029169932,-0.042595834,0.028073424,-0.05177918,0.49636358,0.28049132,0.17276265,0.81084806,0.19597839,0.24324,-0.034230597,0.49584702,-0.15136465,-0.39451778,-0.43356875,-0.03715262,759.5238,803.0403,788.1319,790.14655,604.7985,69.999985,0,-0.145751953,0.174438477,0.97265625,3.454284668,-4.613189697,-2.00378418,1,1,1,1,1,40,sad
32:55.9,0.13720109,0.28618842,-0.009642537,0.30417654,0.2340373,0.02589899,-0.12715459,0.09241483,0.5918567,0.3494139,0.14626902,0.7652092,0.26752847,0.097009405,-0.13046584,0.31632802,-0.2971342,-0.50644636,-0.36040425,-0.05833853,814.3223,794.57874,788.93774,798.60803,777.25275,87.99997,0,-0.142822266,0.176879883,0.974487305,3.745880127,-3.514099121,-1.674804688,1,1,1,1,1,40,sad
32:56.9,-0.1824359,0.08157329,0.16000451,-0.025818449,0.2532557,-0.060474362,-0.23830983,-0.21033798,0.62353355,0.44839358,0.004447443,0.67286897,0.28267983,0.09317932,0.054660425,0.23832893,-0.08032587,-0.22773056,-0.03171328,0.019200597,755.09155,808.68134,776.4469,794.57874,817.9487,100,0,-0.141479492,0.174194336,0.975830078,3.768310547,-4.403839111,-1.786956787,1,1,1,1,1,35,sad
32:58.0,0.07429986,0.2562948,-0.15372029,-0.07301564,0.16472453,0.26850936,-0.40969118,0.011480664,0.54848814,0.48249352,0.32947773,0.6124938,0.2891651,0.16982618,0.14464433,0.39188173,-0.051950827,-0.24646485,-0.19709654,0.1312919,847.3626,799.41394,790.54944,826.8132,1103.6263,100,6,-0.142944336,0.172668457,0.978881836,3.626251221,-4.209442139,-1.293487549,1,1,1,1,1,35,sad
32:59.0,-0.08411989,0.33248806,-0.108589485,0.16790608,0.25706324,0.1976243,-0.24174455,0.037177514,0.7354218,0.44095615,0.30058968,0.6515824,0.18907015,0.16216744,0.028389096,0.38493285,-0.2140111,-0.44593257,-0.19467223,0.18088359,786.52014,797.3993,787.326,784.5055,740.58606,100,6,-0.143493652,0.178466797,0.969055176,3.282318115,-4.687957764,-1.757049561,1,1,1,1,1,35,sad
33:00.0,-0.019473048,0.3847256,0.17260829,0.23198473,0.1331369,0.046581414,-0.041956596,0.1143968,0.69743496,0.46587503,0.1645075,0.6784614,0.19957352,0.038899485,0.1000722,0.4174366,-0.36146066,-0.4136165,-0.15496297,0.018870829,789.7436,809.4872,782.0879,820.7692,668.86444,100,0,-0.14440918,0.184204102,0.971923828,3.992614746,-3.663635254,-1.667327881,1,1,1,1,1,35,sad
33:01.0,-0.053397648,0.33324528,0.8715407,0.01734681,0.20004643,0.06950615,0.46379194,0.08446891,0.8969005,0.4500929,0.4192667,0.42214566,0.1279525,0.011927909,0.23414803,0.32098955,-0.31231827,-0.3255506,-0.22445746,-0.022012556,689.81683,799.41394,752.674,728.0952,516.1539,100,0,-0.156494141,0.190368652,0.971252441,4.164581299,-3.581390381,-2.272949219,1,1,1,1,1,35,sad
33:02.0,-0.2389088,0.40889844,0.54688185,-0.11442735,0.22936656,-0.042298026,-0.20211338,-0.5026888,0.7993418,0.08577051,-0.09318949,0.06839231,0.22680034,0.049561176,-0.04060187,0.36115205,-0.17906177,-0.5255758,-0.36575532,-0.014201361,831.6484,817.1429,767.5824,829.2308,721.2454,100,2,-0.139465332,0.190002441,0.970458984,3.69354248,-5.338439941,-1.121520996,1,1,1,1,1,35,sad
33:03.1,0.67717147,0.5080498,0.7453311,0.218233,0.24543248,0.35346043,0.6893661,0.4551601,0.38033566,-0.139037,0.60826236,0.12850699,0.5293082,0.3010609,0.6150823,0.48135436,0.23768683,0.08833467,0.2135318,0.56372976,832.8571,804.65204,792.5641,801.4286,796.99634,94.00001,21.999996,-0.147583008,0.189880371,0.97064209,2.534637451,-3.454284668,0.13458252,1,1,1,1,1,35,sad
33:04.1,0.64172685,0.43321225,0.75193185,0.2996387,0.100522086,0.1305539,0.43020585,0.28707063,0.43971637,-0.0316585,0.69504726,0.78622764,0.5505612,0.06950841,0.4868233,0.48233682,0.19470046,-0.095969096,0.08805452,0.4838466,872.3443,789.34064,797.3993,846.1539,1052.0513,74.00002,42.000004,-0.155517578,0.188903809,0.967102051,2.691650391,-3.058013916,-0.95703125,1,1,1,1,1,35,sad
33:05.1,0.18601456,0.23684691,0.97566694,0.22867624,0.045611035,0.08398478,0.72232634,0.22380787,0.550622,0.5419506,0.91564596,0.8344302,0.5706557,0.4507588,0.4375801,0.8484987,0.20204271,0.3565566,0.101771295,0.81466734,799.011,795.38464,789.7436,811.0989,793.7729,54.000046,61.999996,-0.157714844,0.18939209,0.968505859,3.798217773,-4.373931885,-0.93460083,1,1,1,1,1,35,sad
33:06.1,0.2846186,0.30692777,0.9748204,0.12818745,0.33555055,-0.016809588,0.7605332,0.23209295,0.7485356,0.4735208,0.91564596,0.72578204,0.39776236,0.34344888,0.45105892,0.6157098,0.13539839,0.072154194,0.11624374,0.4250088,786.9231,792.96704,789.34064,817.1429,885.64105,42.000042,81.99998,-0.157592773,0.187072754,0.969360352,3.140258789,-4.164581299,-2.370147705,1,1,1,1,1,35,sad
33:07.2,0.55402136,0.26435447,0.3235842,0.4033795,0.4282659,-0.22851679,-0.023041219,0.097800836,0.70659775,0.50331116,0.5508353,0.7301247,0.4691993,0.33281568,0.19175652,0.57742226,0.2786523,0.10605061,0.095604695,0.20271108,850.989,793.36993,772.8205,816.337,945.6777,46.000046,83.99998,-0.161437988,0.189331055,0.966796875,3.050537109,-3.977661133,-1.629943848,1,1,1,1,1,35,sad
33:08.2,0.20725954,-0.06357304,0.11005316,0.13443588,0.28924933,-0.3337518,-0.06977636,0.37939304,0.75609046,0.51174945,0.5381962,0.8898155,0.35735404,0.23405127,0.2244908,0.31515846,0.22470537,0.03062156,0.19263563,0.25510573,751.8681,794.9817,795.38464,792.5641,601.1722,62.00004,87.99997,-0.163085938,0.192504883,0.967895508,3.566436768,-3.925323486,-1.816864014,1,1,1,1,1,35,sad
33:09.2,0.10271495,0.16125794,0.39935914,0.3264383,0.33118746,-0.061046578,0.08386598,0.4443008,0.6035173,0.4683946,0.17355745,0.871975,0.3284953,0.33495727,0.11300485,0.37209177,0.13307223,0.13383698,0.12706575,0.30710807,853.4066,791.75824,777.25275,819.9634,933.5897,82.000015,99.99996,-0.159118652,0.199035645,0.969665527,3.955230713,-4.665527344,-1.457977295,1,1,1,1,1,35,sad
33:10.2,0.22465575,0.06982807,0.63489413,0.31980214,-0.09142849,-0.09953757,0.36300522,0.15245013,0.55754244,0.34873253,0.453555,0.59937143,0.3567349,0.24584268,0.24785417,0.5776707,0.1443191,0.18701951,-0.005423677,0.24268642,776.8498,801.8315,799.41394,804.2491,697.0696,78.00002,100,-0.160888672,0.190490723,0.969543457,3.701019287,-3.865509033,-1.487884521,1,1,1,1,1,35,sad
33:11.2,0.277708,0.004005213,0.3583811,0.25872546,-0.012187277,-0.007010809,-0.015325448,0.064975604,0.7612358,0.24587117,0.21908972,0.62326014,0.38118586,0.3260799,0.12567963,0.53958297,0.08736095,0.048603155,0.20668298,0.2589925,852.6007,786.9231,772.01465,799.41394,757.50916,80.000015,100,-0.151428223,0.1953125,0.966003418,3.461761475,-4.314117432,-1.861724854,1,1,1,1,1,35,sad
33:12.2,0.8141033,0.39299273,0.23343332,0.9732462,0.38268736,0.11714037,-0.25248122,0.6086426,0.94738,0.30860668,0.24806377,1.0615786,0.5393984,0.21745284,0.3655664,0.586987,0.38972571,0.16306281,0.24654731,0.4504046,824.3956,805.05493,790.14655,823.5897,890.07324,92.00001,84.000015,-0.15411377,0.197509766,0.965637207,3.342132568,-4.134674072,-1.742095947,1,1,1,1,1,35,sad
33:13.2,0.418729,0.77391875,-0.04110207,1.1291838,0.28814062,0.1475559,-0.12009558,0.74545145,0.8130492,0.1346955,-0.053534824,1.0357823,1.0601393,0.23840283,0.48522606,0.5350267,1.0581324,0.25328365,0.25860822,0.60154486,773.6264,789.34064,757.50916,780.4762,652.3443,80.000015,96,-0.165771484,0.200927734,0.968505859,2.96081543,-3.902893066,-2.183227539,1,1,1,1,1,35,sad
33:14.3,-0.10032189,0.55815995,-0.04110207,-0.061533757,-0.037685275,0.29953718,-0.12009558,-0.02546335,0.66061723,0.6041466,-0.053534824,0.3294538,0.81899375,0.48561794,0.48522606,0.72629005,0.69749415,0.12782319,0.25860822,-0.007760486,809.4872,783.69965,776.8498,824.3956,853.00366,60.00004,100,-0.155395508,0.192932129,0.966003418,3.544006348,-3.76083374,-1.577606201,1,1,1,1,1,35,sad
33:15.3,-0.14554802,0.85880136,-0.04110207,-0.16912693,-0.18835957,0.52208143,-0.12009558,-0.038032413,0.58926326,0.6634302,-0.053534824,0.477242,0.3224503,0.4734851,0.48522606,0.6198087,0.005404552,0.032119602,0.25860822,0.088718235,791.3553,795.78754,781.28204,767.1795,703.91943,58.00004,100,-0.151489258,0.19140625,0.967102051,2.91595459,-4.568328857,-2.011260986,1,1,1,1,1,35,sad
33:16.3,0.4391617,1.0069839,0.27972218,0.13071844,0.3766969,0.55537874,0.056140475,0.2329233,0.7842793,0.8463925,0.5157965,0.8724946,0.36916634,0.5298895,0.34866315,0.51707155,0.45467854,0.24791752,0.5142612,0.29770574,841.7216,813.5165,798.60803,751.4652,839.304,78.00002,100,-0.151916504,0.197814941,0.972229004,3.237457275,-2.975769043,-2.639312744,1,1,1,1,1,35,sad
33:17.3,0.67570513,1.2904904,0.24852443,0.48180977,0.41755107,0.91186875,0.056922454,0.48737118,0.7857183,0.8463925,0.36473846,0.81899554,0.7087895,0.67757714,0.5125268,0.48776573,0.89665985,0.31658465,0.6666192,0.45003864,737.3626,800.6227,779.67035,777.25275,665.2381,72.00003,100,-0.158691406,0.200195313,0.965942383,4.052429199,-3.641204834,-0.949554443,1,1,1,1,1,35,sad
33:18.3,0.35243863,0.26084504,0.19781046,0.2255907,0.3604285,-0.36760303,0.23393925,0.1275555,0.51139754,0.008027931,0.73593724,0.44745827,0.4877073,0.4941741,0.14973754,0.34840116,0.31424102,0.4832877,0.1026726,0.15927431,871.9414,754.68866,800.6227,826.0073,927.9487,52.000046,100,-0.155639648,0.201293945,0.970581055,2.998199463,-4.224395752,-1.809387207,1,1,1,1,1,35,sad
33:19.4,0.108722195,0.5579951,1.0986526,0.12455001,-0.1435985,-0.70791435,0.57260823,0.09103181,0.31502333,-0.1260004,0.7692202,0.38974738,0.49331653,0.7128342,0.37798637,0.37108412,0.43255234,0.86964417,0.17365411,0.20672627,772.4176,790.54944,794.17584,805.4579,461.75824,30.000036,100,-0.14440918,0.208679199,0.967895508,2.968292236,-4.515991211,-2.295379639,1,1,1,1,1,35,sad
33:20.4,0.41279954,0.6122115,0.93426955,0.43352926,-0.07966526,-0.6687292,0.24688976,0.3576778,0.49565554,-0.18277131,0.47493893,0.7907081,0.22565249,0.75836635,0.261646,0.54801977,0.2666382,0.9297028,0.1455909,0.26042777,860.2564,613.2601,795.78754,820.7692,886.4469,22.000036,100,-0.145874023,0.194458008,0.969482422,3.536529541,-4.957122803,-1.600036621,1,1,1,1,1,35,sad
33:21.4,0.45711765,0.6122115,0.83491075,0.52459526,0.12974313,-0.6687292,0.17418633,0.253152,0.53502136,-0.18277131,0.52273494,0.80777854,0.33704653,0.75836635,0.15546289,0.4576373,0.14841513,0.9297028,-0.045244314,0.003787405,754.68866,806.26373,796.5934,786.1172,562.8938,22.000036,96,-0.13873291,0.193603516,0.971130371,3.723449707,-4.149627686,-1.652374268,1,1,1,1,1,35,sad
33:22.5,0.24488863,0.1930134,0.648595,0.5495623,0.26300266,0.093528815,0.12817827,0.2940864,0.7985337,0.083220124,0.50007915,0.7361973,0.36591843,0.139205,0.14220776,0.51896816,-0.028903568,-0.2008412,-0.001095595,0.23566656,801.4286,801.02563,794.17584,795.38464,753.0769,38.000042,76.00002,-0.139709473,0.197143555,0.973205566,3.813171387,-4.396362305,-1.682281494,1,1,1,1,1,35,sad
33:23.5,-0.3233052,0.017648838,0.31300494,-0.25072473,0.14984703,-0.006238698,-0.03099398,0.29418668,0.6032343,0.1842137,0.26942068,0.79170394,0.37676993,0.17813988,0.12604865,0.46177778,0.059150025,-0.15844467,-0.046118293,0.19712104,786.52014,798.60803,804.2491,817.9487,785.31134,58.00004,74.00002,-0.146728516,0.196533203,0.96875,3.596343994,-3.775787354,-1.495361328,1,1,1,1,1,35,sad
33:24.5,0.4932871,0.12186582,0.39656863,0.38911444,0.59686196,-0.005720987,0.014032819,0.43536782,1.6105621,0.7148713,0.38501942,1.0192008,0.5596814,0.21548681,0.118668735,0.34767354,0.19403963,0.030519418,-0.15949409,0.22053917,822.7839,796.1905,796.5934,812.3077,888.0586,78.00002,56.000042,-0.143249512,0.186035156,0.969665527,2.721557617,-4.052429199,-1.009368896,1,1,1,1,1,35,sad
33:25.5,0.87158155,0.55729914,-0.23216237,0.45534462,0.5912777,0.29966295,-0.12206133,0.3253818,1.5826142,0.80935335,0.3187372,0.6875608,0.5158681,0.2870762,0.07030688,0.5614744,0.31546363,0.039535902,-0.10466326,0.48385957,771.2088,800.2198,800.6227,794.57874,785.31134,98,42.000042,-0.145202637,0.188232422,0.971313477,3.551483154,-3.835601807,-2.071075439,1,1,1,1,1,35,sad
33:26.6,0.48709223,0.38229772,-0.1678954,0.15826519,0.2387962,0.0877281,-0.3182253,0.14698401,1.0314031,0.61054397,0.28884345,0.6380571,0.35092297,0.1261266,0.12730879,0.42919892,0.04178689,-0.08319329,-0.033102892,0.2900971,845.34796,798.60803,784.10254,807.0696,861.8681,100,60.00004,-0.147766113,0.188049316,0.967285156,3.484191895,-4.575805664,-1.457977295,1,1,1,1,1,35,sad
33:27.6,-0.004514824,0.40355232,0.46239305,0.15100205,0.28234655,0.090389825,0.3006128,0.25564292,0.62853897,0.46701774,0.46060225,0.6114455,0.45033118,0.20218007,0.3335591,0.6131555,0.022429196,-0.13830628,-0.07159561,0.12652239,753.0769,790.14655,793.7729,785.7143,608.8278,100,48.000046,-0.145141602,0.192443848,0.970153809,4.059906006,-3.813171387,-1.256103516,1,1,1,1,1,35,sad
33:28.6,0.012853102,-0.017377494,0.19555934,0.25792614,-0.0480962,-0.05565145,0.06125292,-0.16310164,0.698091,0.44684914,0.50502336,0.610185,0.41829562,0.2839972,0.24046281,0.58171314,0.16698268,-0.09250985,-0.1262655,0.15407863,751.4652,784.90845,781.28204,790.14655,598.7546,100,56.000042,-0.142822266,0.193054199,0.969543457,3.476715088,-3.932800293,-1.585083008,1,1,1,1,1,35,sad
33:29.7,-0.27363592,0.2051342,-0.1612393,0.28809044,-0.059695236,0.21376598,-0.042460095,0.09617433,0.6552697,0.28928348,0.17587952,0.696839,0.44547665,0.24593632,0.35780367,0.50728863,0.26339316,0.12958047,-0.005055952,0.29050416,739.3773,791.3553,776.4469,780.87915,546.3736,100,78.00002,-0.155761719,0.192382813,0.965942383,3.775787354,-4.381408691,-2.145843506,1,1,1,1,1,35,sad
33:30.7,0.1719463,0.750526,0.2184007,0.23428139,0.21342887,0.19156648,-0.15656766,0.08121012,0.70497,0.3951573,0.24308623,0.6212916,0.39408273,0.22060907,0.20347962,0.475666,0.25106552,0.14673524,0.13758293,0.36789286,870.32965,792.5641,795.78754,819.15753,971.06226,100,98,-0.156494141,0.198852539,0.968811035,3.581390381,-3.970184326,-1.128997803,1,1,1,1,1,35,sad
33:31.7,0.36002305,0.9652616,0.2187277,0.18852362,0.48305756,0.28317642,-0.15023857,0.06352251,0.7581974,0.2608804,0.30903605,0.7352795,0.40986925,0.30463722,0.15808034,0.5151372,0.15523787,0.082345106,-0.058346022,0.25145006,745.82416,798.60803,790.14655,784.90845,616.4835,100,100,-0.152404785,0.196533203,0.965209961,3.327178955,-3.095397949,-1.794433594,1,1,1,1,1,35,sad
33:32.7,0.23257765,0.42945606,0.256471,0.21081966,0.56952626,0.11603374,0.020671297,0.0130802,0.75912654,0.1973348,0.32155433,0.6865063,0.35445547,0.19261901,0.22021277,0.46084324,0.19817981,-0.018485095,0.05078818,0.17569967,804.2491,808.2784,798.20514,807.0696,754.68866,100,100,-0.153564453,0.198791504,0.971923828,3.566436768,-3.633728027,-1.742095947,1,1,1,1,1,35,sad
33:33.7,-0.050166324,0.53863126,0.112969324,-0.021801636,0.10053212,0.19021343,-0.025199609,-0.10641069,0.37770936,0.30897927,0.2292448,0.54107845,0.33925438,0.18249947,-0.062895626,0.33965433,0.21958035,-0.057447486,0.052958474,0.19287905,772.8205,793.36993,792.5641,792.96704,911.02563,100,100,-0.15435791,0.200073242,0.969909668,3.76083374,-3.394470215,-1.667327881,1,1,1,1,1,35,sad
33:34.7,0.003850879,0.43175733,0.18365489,0.008253079,0.33387512,0.1609869,0.054390185,0.3172924,0.59372365,0.26144558,0.17708242,0.5766473,0.3768462,0.13318866,-0.003369402,0.36364838,-0.042283636,-0.26946685,-0.06847084,0.115953855,751.8681,801.02563,801.02563,801.02563,641.4652,100,100,-0.15234375,0.204406738,0.96875,3.753356934,-4.029998779,-1.480407715,1,1,1,1,1,35,sad
33:35.8,-0.14443256,0.06222056,0.19660938,-0.061228935,0.09658944,-0.24901246,-0.050945655,0.15125689,0.45140895,0.07246901,0.09012097,0.5285446,0.37926504,0.007947833,0.023920907,0.32405487,-0.14308201,-0.2598298,-0.14100292,0.03715167,860.65936,804.2491,792.1612,811.9048,899.7436,100,100,-0.147644043,0.202270508,0.966369629,3.529052734,-4.314117432,-1.532745361,1,1,1,1,1,35,sad
33:36.8,0.8693248,-0.19785017,-0.23056766,0.794159,0.95605433,-0.012618091,0.019133596,0.7649349,1.0638872,0.021239445,0.194325,0.7413858,0.42097783,0.13333288,-0.09716792,0.47969088,-0.10219004,-0.06283264,-0.29262617,-0.08591408,722.8571,802.6374,805.8608,754.68866,587.8755,92.00001,84.000015,-0.153198242,0.19720459,0.969177246,3.76083374,-4.299163818,-1.487884521,1,1,1,1,1,35,sad
33:37.8,1.5056343,0.26368642,0.38452435,1.2005444,1.3887465,0.07638831,0.3200942,1.108751,1.3193508,0.63928515,0.35708758,0.7399039,0.4043249,0.31665438,0.08549418,0.5622774,-0.10093402,0.028553987,-0.17320074,0.001007766,853.8095,793.7729,791.3553,826.0073,929.5604,72.00003,64.00003,-0.153076172,0.201843262,0.967712402,3.327178955,-3.701019287,-1.89163208,1,1,1,1,1,35,sad
33:38.8,1.169296,0.07386831,0.15160213,-0.110608436,0.9216073,0.16069402,0.05622363,-0.19694595,1.1926771,0.67224705,0.34556422,0.60299265,0.38625953,0.3589902,0.07675616,0.44678804,0.06898314,0.14893204,-0.10650599,0.32273304,755.89746,769.59705,754.2857,780.4762,604.3956,62.00004,60.00004,-0.153808594,0.202087402,0.967224121,3.85055542,-4.142150879,-2.071075439,1,1,1,1,1,35,sad
33:39.8,-0.07264681,0.42868954,0.32621208,-0.1475993,0.065742575,0.040225435,-0.30573547,-0.079436615,0.6867506,0.48121083,0.09464636,0.56110865,0.22122094,0.22937548,-0.021020751,0.46499324,0.104062766,-0.002090122,-0.011441809,0.26442513,830.4396,779.67035,759.5238,778.46155,841.31866,82.000015,80.000015,-0.154663086,0.210021973,0.960021973,3.499145508,-3.469238281,-1.286010742,1,1,1,1,1,35,sad
33:40.8,-0.008398519,0.7493967,0.5774761,0.023888167,-0.09859893,-0.11501827,-0.29894355,0.047031667,0.62381506,0.35185656,-0.13516508,0.35928762,0.26158288,0.12084793,0.1090243,0.44372255,0.11186264,-0.38727558,0.05885642,0.1249316,702.71063,763.95605,776.4469,803.44324,909.41394,94.00001,100,-0.160095215,0.217651367,0.967285156,2.684173584,-4.089813232,-2.168273926,1,1,1,1,1,35,sad
33:41.9,-0.008398519,0.7493967,0.5774761,0.023888167,-0.09859893,-0.11501827,-0.29894355,0.047031667,0.62381506,0.35185656,-0.13516508,0.35928762,0.26158288,0.12084793,0.1090243,0.44372255,0.11186264,-0.38727558,0.05885642,0.1249316,853.00366,739.3773,824.3956,838.9011,985.16486,94.00001,100,-0.160583496,0.210754395,0.958190918,3.132781982,-1.652374268,-1.884155273,1,1,1,1,1,35,sad
33:42.9,-0.008398519,0.7493967,0.5774761,0.023888167,-0.09859893,-0.11501827,-0.29894355,0.047031667,0.62381506,0.35185656,-0.13516508,0.35928762,0.26158288,0.12084793,0.1090243,0.44372255,0.11186264,-0.38727558,0.05885642,0.1249316,898.5348,819.15753,915.8608,821.978,964.21246,94.00001,100,-0.169189453,0.211120605,0.964477539,3.626251221,-3.947753906,-1.540222168,1,2,1,1,2,35,sad
33:43.9,-0.008398519,0.7493967,0.5774761,0.023888167,-0.09859893,-0.11501827,-0.29894355,0.047031667,0.62381506,0.35185656,-0.13516508,0.35928762,0.26158288,0.12084793,0.1090243,0.44372255,0.11186264,-0.38727558,0.05885642,0.1249316,818.7546,807.8755,812.3077,805.8608,1050.8425,94.00001,100,-0.166137695,0.213439941,0.960388184,3.289794922,-4.747772217,-2.572021484,1,2,1,1,2,35,sad
33:44.9,0.5054505,0.7493967,0.5423457,0.33569604,0.3217397,-0.11501827,0.090365164,-0.09210355,0.5570793,0.35185656,0.270614,0.81571573,0.5399253,0.12084793,0.40032405,0.42826486,0.4017607,-0.38727558,0.12617123,0.20600949,826.4103,738.1685,858.24176,807.8755,861.06226,96,100,-0.161987305,0.219909668,0.96307373,3.514099121,-3.626251221,-1.884155273,1,1,1,1,1,35,sad
33:45.9,1.157721,0.7493967,0.4904038,1.0028101,0.89615726,-0.11501827,-0.06830792,0.6994616,1.1827165,0.35185656,0.26640368,0.88447577,0.5910313,0.12084793,0.39505312,0.52423793,0.35244545,-0.38727558,0.12827781,0.1758427,790.14655,794.9817,858.6447,790.54944,958.97437,98,86.000015,-0.171936035,0.223693848,0.95892334,3.170166016,-4.097290039,-1.300964355,1,1,1,1,1,35,sad
33:46.9,1.344651,0.7493967,0.4904038,0.5509852,1.0712615,-0.11501827,-0.06830792,0.77894807,1.1827165,0.35185656,0.26640368,0.76242083,0.6423153,0.12084793,0.39505312,0.7625831,0.30627492,-0.38727558,0.12827781,0.7030373,847.3626,765.56775,849.7802,821.1722,854.61536,78.00002,68.00003,-0.171569824,0.223754883,0.957275391,3.484191895,-4.254302979,-1.368255615,1,1,1,1,1,35,sad
33:48.0,1.344651,0.7493967,0.4904038,0.4427192,1.0712615,-0.11501827,-0.06830792,0.68854517,1.1827165,0.35185656,0.26640368,0.76679915,0.6423153,0.12084793,0.39505312,0.7455376,0.30627492,-0.38727558,0.12827781,0.6844437,847.76556,773.22345,791.75824,810.696,944.4689,58.00004,88.000015,-0.168151855,0.224060059,0.963806152,3.304748535,-4.463653564,-1.353302002,1,1,1,1,1,40,sad
33:49.0,1.344651,0.7493967,0.4904038,0.36796358,1.0712615,-0.11501827,-0.06830792,0.508023,1.1827165,0.35185656,0.26640368,0.6127409,0.6423153,0.12084793,0.39505312,0.666992,0.30627492,-0.38727558,0.12827781,0.6723004,746.2271,799.41394,794.57874,781.28204,618.9011,38.000042,100,-0.172363281,0.215209961,0.962524414,3.678588867,-2.669219971,-2.340240479,1,1,1,1,1,40,sad
33:51.0,0.71339446,0.7493967,0.4904038,0.90005106,0.65065,-0.11501827,-0.06830792,0.4684139,0.742797,0.35185656,0.26640368,0.7085405,0.82203275,0.12084793,0.39505312,1.04279,0.6867956,-0.38727558,0.12827781,0.76316243,756.30035,752.674,835.2747,786.9231,535.09155,0,100,-0.179626465,0.214111328,0.958251953,3.499145508,-3.618774414,-1.532745361,1,1,1,1,1,40,sad
33:52.0,0.71339446,0.7493967,1.2121027,0.90005106,0.65065,-0.11501827,1.0440698,0.4684139,0.742797,0.35185656,0.7032286,0.7085405,0.82203275,0.12084793,0.46603703,1.04279,0.6867956,-0.38727558,0.36106744,0.76316243,855.0183,757.9121,826.0073,799.81683,928.3516,0,100,-0.176696777,0.217529297,0.958251953,3.925323486,-2.818756104,-1.517791748,1,1,1,1,1,40,sad
33:53.0,0.71339446,0.7493967,1.1787056,0.7531468,0.65065,-0.11501827,1.0672022,0.2939247,0.742797,0.35185656,0.7139751,0.452968,0.82203275,0.12084793,0.41744986,0.8313773,0.6867956,-0.38727558,0.36613235,0.54866457,722.0513,817.1429,807.47253,771.2088,919.4872,0,100,-0.187744141,0.218505859,0.958068848,3.439331055,-4.321594238,-1.921539307,1,1,1,1,1,40,sad
33:54.1,1.2195624,0.7493967,1.0471894,0.7531468,0.95839185,-0.11501827,0.84065986,0.2939247,0.6648757,0.35185656,0.6701658,0.452968,0.7945204,0.12084793,0.4637092,0.8313773,0.54902756,-0.38727558,-0.07406265,0.54866457,819.9634,808.68134,768.3883,801.4286,1241.8315,0,100,-0.182861328,0.219543457,0.958984375,3.162689209,-3.723449707,-1.166381836,1,1,1,1,1,40,sad
33:55.1,1.1699938,1.293944,0.92509973,0.7531468,0.77895445,0.45967644,0.70515263,0.2939247,0.7166406,0.8497559,0.68855,0.452968,0.69119895,0.56145513,0.43771797,0.8313773,0.45402908,0.23762454,-0.01582588,0.54866457,774.0293,777.6557,757.9121,816.7399,570.54944,0,100,-0.192871094,0.219604492,0.960632324,2.482299805,-4.433746338,-3.087921143,1,1,1,1,1,40,sad
33:56.1,0.757981,0.70680356,0.8476969,0.7531468,0.44174814,-0.1979446,0.5322258,0.2939247,0.9423434,-0.00451551,0.5898195,0.452968,0.5791432,0.54393256,0.5615524,0.8313773,0.5207525,0.25279522,0.41872448,0.54866457,750.65936,822.7839,839.304,797.3993,744.21246,0,100,-0.181518555,0.227600098,0.954406738,3.932800293,-3.095397949,-1.360778809,1,1,1,1,1,40,sad
33:57.1,0.69345415,0.70680356,0.49410802,0.729139,0.4874959,-0.1979446,0.29979455,0.5099593,0.9512739,-0.00451551,0.27477634,0.672994,0.68907607,0.54393256,0.41792774,0.61627907,0.55604666,0.25279522,0.21291934,0.58535016,806.6667,806.6667,807.0696,790.9524,692.6374,0,100,-0.172241211,0.230957031,0.951721191,5.166473389,-3.102874756,-1.248626709,1,1,1,1,1,40,sad
33:58.1,0.66253155,1.0114137,0.51578736,0.50549793,0.42925483,0.703631,0.19129695,0.42818218,0.8486963,0.8766982,0.4228002,1.0003085,0.6316812,0.5880408,0.3988563,0.573557,0.47484103,0.28596947,0.07484992,0.6972557,767.5824,814.3223,797.3993,798.20514,519.3773,0,100,-0.188354492,0.213500977,0.958312988,3.910369873,-4.87487793,-2.459869385,1,1,1,1,1,40,sad
33:59.1,0.28100827,0.63901156,0.60263765,0.43108633,0.3458429,0.45979697,0.14826244,0.47946107,0.7909935,0.5189963,0.33636016,0.75315243,0.4512174,0.45096284,0.40673476,0.65162355,0.26249266,0.39534417,0.07700061,0.5536536,859.45056,813.91943,813.5165,807.0696,1043.5897,15.999998,100,-0.182678223,0.221618652,0.958618164,3.521575928,-4.411315918,-1.712188721,1,1,1,1,1,40,sad
34:00.2,0.4641392,0.6981371,0.9114024,1.0106366,0.19635785,0.48677137,-0.40333873,0.40625745,0.42533687,0.09947333,-0.17306088,0.59948456,0.56822014,0.40916315,0.28964698,0.67836016,0.35536483,0.43758866,0.047768705,0.55587435,751.06226,816.337,818.3516,782.49084,776.4469,0,100,-0.160705566,0.225158691,0.959533691,3.992614746,-4.942169189,-2.504730225,1,1,1,1,1,40,sad
34:01.2,0.5848432,0.6981371,0.9114024,1.2688665,-0.023099871,0.48677137,-0.40333873,0.32839614,0.22900656,0.09947333,-0.17306088,0.5932229,0.66492015,0.40916315,0.28964698,0.757462,0.52803046,0.43758866,0.047768705,0.63501704,760.32965,786.52014,807.8755,784.5055,732.9304,0,100,-0.170227051,0.224243164,0.955505371,3.723449707,-4.822540283,-1.487884521,1,1,1,1,1,40,sad
34:02.2,0.5848432,0.6981371,0.34850118,1.2688665,-0.023099871,0.48677137,0.4074252,0.32839614,0.22900656,0.09947333,0.26087308,0.5932229,0.66492015,0.40916315,0.408057,0.757462,0.52803046,0.43758866,0.019954063,0.63501704,828.4249,805.05493,832.4542,808.68134,709.5604,0,100,-0.159729004,0.221984863,0.961975098,3.349609375,-3.992614746,-2.250518799,1,1,1,1,1,40,sad
34:03.2,0.42524177,0.65328467,0.30042338,0.30661285,0.32053873,0.50797826,0.077801906,0.5346161,0.656226,0.6251048,0.16404435,0.43099463,0.68266684,0.54951304,0.32796457,0.682182,0.7531299,0.3195243,0.06475455,0.5458074,736.1539,769.19415,798.20514,791.75824,535.09155,0,100,-0.16003418,0.21673584,0.963317871,3.357086182,-4.71786499,-0.485992432,1,1,1,1,1,40,sad
34:04.3,0.51460004,0.8392845,0.34547314,0.27853757,0.33925435,0.69593155,-0.45351022,0.12736198,0.6283083,0.61627173,-0.08481638,0.397596,0.6899,0.4678545,0.2734387,0.6200009,0.53025645,0.44032347,0.36043632,0.44529057,773.6264,781.685,803.8461,802.6374,704.3223,0,100,-0.157287598,0.21472168,0.965637207,3.588867188,-3.970184326,-1.203765869,1,1,1,1,1,40,sad
34:05.3,0.76313925,0.8301996,0.5776495,0.73634523,0.6451274,0.7028326,-0.5256982,0.3321086,0.71002996,0.55837214,-0.18633738,0.5842102,0.8502468,0.38606265,0.2504843,0.9658453,0.7393333,0.386979,0.61475366,0.92908317,855.0183,780.4762,810.696,801.4286,925.9341,0,100,-0.172973633,0.222229004,0.959472656,4.194488525,-4.037475586,-1.375732422,1,1,1,1,1,40,sad
34:06.3,0.3736752,0.8301996,0.6091999,0.35685095,0.58749884,0.7028326,0.11230926,0.4182087,0.7170079,0.55837214,0.33247107,0.9745664,0.4954852,0.38606265,0.43663868,0.6299945,0.27480203,0.386979,0.10782739,0.4679256,790.9524,798.60803,806.6667,772.8205,766.3736,0,100,-0.163146973,0.211791992,0.963439941,2.639312744,-4.665527344,-2.355194092,1,1,1,1,1,40,sad
34:07.4,0.44962397,0.8268881,0.34275925,0.34850967,0.2029757,0.31436685,0.3410015,0.17793992,0.8130648,0.6175072,0.23681623,0.9600238,0.6676482,0.41743726,0.4288879,0.5856052,0.41515493,0.14006235,0.12162082,0.509255,767.1795,759.5238,804.2491,802.23444,506.88644,17.999998,100,-0.173278809,0.206176758,0.953796387,3.558959961,-4.388885498,-1.884155273,1,1,1,1,1,40,sad
34:08.4,0.931944,0.5202943,0.43168554,0.8049884,0.5326069,0.18718056,0.36517262,0.4680944,0.79187185,0.5078757,0.20298843,0.79965514,0.7531549,0.35561898,0.41147977,0.6367889,0.3002639,0.147299,-0.046282742,0.44360426,776.8498,795.38464,819.9634,780.07324,784.90845,15.999998,100,-0.184631348,0.213195801,0.963439941,3.416900635,-3.147735596,-1.629943848,1,1,1,1,1,40,sad
34:09.4,1.510922,0.5638553,0.5156381,1.4343477,0.95944047,0.22843663,-0.29538977,1.0751876,0.8321679,0.35363266,0.1332314,0.7653949,0.7781666,0.35083237,0.3751598,0.74107546,0.35725766,0.15708363,-0.11796764,0.574419,861.06226,817.5458,819.5604,819.5604,970.2564,0,80.000015,-0.187683105,0.213317871,0.961669922,3.7159729,-4.052429199,-1.622467041,1,1,1,1,1,40,sad
34:10.4,0.9068636,1.0442938,0.98167104,0.42961004,0.30379874,0.3832583,0.43032068,0.42107806,0.6050449,0.2051602,0.22814426,0.8537221,0.5304276,0.37814206,0.31648514,0.5423575,0.30689874,0.23983583,0.10924105,0.44499364,791.75824,795.78754,795.38464,782.8938,546.77655,0,76.00002,-0.171264648,0.215087891,0.958557129,3.768310547,-5.136566162,-1.472930908,1,1,1,1,1,40,sad
34:11.5,0.88688165,0.98483735,0.9147334,0.82364184,0.36664197,0.44716528,0.40329084,0.42461315,1.0007246,0.78135973,0.8983002,1.1482567,0.63862216,0.39618704,0.2412695,0.5826436,0.41195905,0.01981326,0.092498325,0.4134616,718.4249,807.0696,815.9341,778.86444,560.07324,15.999998,68.00003,-0.180969238,0.213928223,0.962768555,3.499145508,-4.112243652,-1.502838135,1,1,1,1,1,40,sad
34:12.5,1.2180008,0.60949993,1.1108286,1.1604955,0.6737939,0.51091355,0.5997877,0.5972641,0.99377924,0.76453334,0.89826775,1.1460992,0.7232358,0.40038666,0.2917106,0.6087834,0.41902068,-0.07466788,0.039585456,0.3549267,805.4579,815.9341,808.2784,767.5824,988.3883,9.999999,48.000046,-0.173095703,0.220031738,0.95880127,3.050537109,-5.622558594,-1.719665527,1,1,1,1,1,40,sad
34:13.5,0.6174349,0.6372732,0.24903348,0.22304922,0.14705522,-0.001720234,0.044427987,0.1659831,0.7809823,0.3352537,0.15639336,0.4675594,0.3526201,0.39271873,0.5669577,0.60110456,0.5470046,0.20579478,0.32507378,0.5257733,765.56775,786.52014,826.4103,744.21246,836.8865,0,64.00003,-0.175109863,0.213867188,0.95892334,3.514099121,-3.9402771,-1.286010742,1,1,1,1,1,40,sad
34:14.5,0.6708154,0.5331046,0.24835639,0.26500282,0.47582918,0.05964216,-0.064438984,0.05836334,0.89743906,0.3323371,0.29592645,0.35631928,0.94512874,0.6426077,0.7681639,0.4719052,1.0031313,0.46816173,0.76332676,0.47720647,776.4469,787.72894,781.28204,831.6484,994.0293,0,84.000015,-0.16796875,0.217834473,0.962768555,4.067382813,-4.605712891,-2.018737793,1,1,1,1,1,40,sad
34:15.5,0.16380209,0.11658053,0.33716768,0.124078155,0.43426374,0.019082425,-0.21491492,0.27082288,0.8498828,0.54493564,0.38388148,1.3442838,0.88451797,0.65778613,0.4691513,0.85189027,0.7613752,0.21733741,0.50109774,0.94683534,773.22345,805.4579,805.05493,782.0879,560.4762,4,100,-0.17590332,0.221435547,0.96081543,3.85055542,-3.663635254,-1.457977295,1,1,1,1,1,40,sad
34:16.5,-0.013225413,0.03380241,0.047719214,0.13082647,0.35355633,-0.14158641,-0.43505475,0.2003401,0.79425794,0.42044023,0.3138503,1.0489136,0.5321345,0.37680623,0.27312073,0.67638713,0.3154072,0.12805681,0.025734691,0.5976022,761.53845,813.1135,813.1135,801.4286,673.69965,23.999996,100,-0.171203613,0.215026855,0.962036133,3.835601807,-3.282318115,-1.368255615,1,1,1,1,1,40,sad
34:17.5,0.2145996,-0.15865366,0.027987892,0.46166983,0.29537255,-0.23874244,-0.2038401,0.34341633,0.67381936,0.014362984,0.3189039,0.7763633,0.5241927,0.33450386,0.08088377,0.67241395,0.30236953,0.17588893,-0.057757992,0.55475545,796.5934,819.9634,809.89014,784.90845,768.7912,27.999996,100,-0.178344727,0.21270752,0.957885742,4.067382813,-3.566436768,-1.136474609,1,1,1,1,1,40,sad
34:18.5,0.48466194,0.04568526,0.38284272,0.64248645,0.19667087,-0.18860447,-0.08388446,0.28851968,0.5466766,0.2459132,0.2968146,0.84983015,0.4550018,0.4448692,0.2811557,0.7047783,0.527343,0.4030455,0.34937307,0.744171,747.4359,796.5934,794.17584,766.77655,633.8095,11.999999,100,-0.170776367,0.209777832,0.96105957,3.753356934,-4.889831543,-1.338348389,1,1,1,1,1,40,sad
34:19.6,0.46424964,-0.44540837,0.3001819,0.23737895,0.0699677,-0.2057562,0.08180255,0.002726823,0.89681786,0.30144945,0.24334481,0.7330845,0.65540695,0.42475656,0.42215484,0.7985664,0.40475672,0.19896032,0.20413159,0.63666236,832.0513,803.44324,799.011,794.9817,671.685,8,100,-0.166870117,0.213195801,0.967651367,3.835601807,-4.358978271,-1.600036621,1,1,1,1,1,40,sad
34:20.6,0.6194853,-0.01514256,0.28151703,0.04367947,-0.050835192,-0.008943433,0.003685045,0.026094452,0.73414576,0.3212003,0.41092655,0.48966014,0.5432485,0.20596187,0.10357274,0.6297097,0.14123441,0.05442126,0.061032273,0.40504375,840.9158,803.0403,784.90845,801.8315,906.5934,6,100,-0.162231445,0.221191406,0.961242676,3.536529541,-4.448699951,-1.577606201,1,1,1,1,1,40,sad
34:21.6,0.76697916,0.25177866,0.51805323,0.23137231,0.5790452,-0.05186833,0.17847477,0.22980581,1.1355854,0.45267922,0.46181965,0.41485518,0.48539466,0.31386328,0.08683495,0.49622065,0.1148697,0.20513071,-0.07786935,0.065731436,788.93774,790.14655,808.68134,792.96704,766.3736,17.999998,92.00001,-0.174072266,0.212097168,0.96887207,3.192596436,-3.880462646,-2.0262146,1,1,1,1,1,40,sad
34:22.6,1.0321594,0.70509934,0.91575634,0.38670802,0.57398546,0.19653942,0.36747867,0.4193923,1.071477,0.4317098,-0.039123897,0.33692512,0.5239084,0.44687074,0.07068718,0.5066222,0.5718106,0.2817646,-0.066434406,-0.025143353,872.74725,767.1795,783.69965,829.6337,968.24176,9.999999,74.00002,-0.192993164,0.214050293,0.962219238,3.058013916,-4.029998779,-1.390686035,1,1,1,1,1,40,sad
34:23.6,1.1601971,0.8812654,0.9998392,0.38670802,0.07161354,0.3341958,0.38912988,0.4193923,0.8087113,0.36573267,-0.07708812,0.33692512,0.5498792,0.45871812,0.093789764,0.5066222,0.5680819,0.35186592,-0.08995344,-0.025143353,761.13556,791.75824,830.0366,763.5531,590.696,0,90.00001,-0.188476563,0.217102051,0.961791992,3.686065674,-5.218811035,-1.099090576,1,1,1,1,1,40,sad
34:24.6,1.0876648,0.8812654,0.9998392,0.38670802,0.18872936,0.3341958,0.38912988,0.4193923,0.5234006,0.36573267,-0.07708812,0.33692512,0.56231326,0.45871812,0.093789764,0.5066222,0.3144096,0.35186592,-0.08995344,-0.025143353,824.7985,843.73627,783.2967,787.326,1047.619,0,88.000015,-0.190673828,0.213134766,0.961791992,3.648681641,-4.134674072,-1.95892334,1,1,1,1,1,40,sad
34:25.6,1.1676158,1.1523869,1.0486807,1.224201,0.6372802,0.4708737,0.4415914,0.7230604,0.6674828,0.4660473,0.5816748,0.73223096,0.5140293,0.19330822,0.24244936,0.6198471,0.3044414,0.23470408,0.050961692,0.44397584,745.0183,793.7729,811.50183,800.6227,672.8938,0,96,-0.193054199,0.217407227,0.962036133,2.87109375,-3.775787354,-1.734619141,1,1,1,1,1,40,sad
34:26.6,1.4013371,1.3203578,1.1560577,1.4645535,0.8384056,0.5964663,0.4682298,0.8530722,0.6198885,0.46830633,0.61337197,0.743681,0.5168278,0.29134145,0.30637497,0.5842036,0.1865029,0.20668744,0.14493826,0.5043922,892.0879,796.1905,751.4652,860.2564,827.619,0,76.00002,-0.184082031,0.224304199,0.954772949,2.325286865,-2.968292236,-2.459869385,1,1,1,1,1,40,sad
34:27.7,1.4995095,1.3203578,0.39725837,0.6747229,0.94130594,0.5964663,0.12142493,-0.085021935,0.59370977,0.46830633,0.37432483,0.48970014,0.5682884,0.29134145,0.31993723,0.52842575,0.186207,0.20668744,0.16763788,0.5604877,842.52747,882.01465,882.8205,832.4542,696.6667,0,72.00003,-0.182556152,0.216430664,0.954406738,3.484191895,-4.306640625,-1.8019104,1,1,1,1,1,40,sad
34:28.7,1.4995095,1.3203578,0.39725837,0.6747229,0.94130594,0.5964663,0.12142493,-0.085021935,0.59370977,0.46830633,0.37432483,0.48970014,0.5682884,0.29134145,0.31993723,0.52842575,0.186207,0.20668744,0.16763788,0.5604877,801.8315,827.619,808.2784,780.87915,1094.762,0,92.00001,-0.184265137,0.219543457,0.958068848,2.415008545,-3.85055542,-2.310333252,1,1,1,1,1,35,sad
34:29.7,0.7371357,1.3203578,1.2141774,0.7798703,0.7084514,0.5964663,0.5538258,0.6225704,1.1433265,0.46830633,0.57845765,0.9347595,0.6780698,0.29134145,0.2844081,0.6946897,0.51994747,0.20668744,0.35686925,0.43020973,758.71796,836.8865,813.91943,750.2564,678.5348,0,92.00001,-0.200134277,0.227416992,0.955505371,3.514099121,-4.187011719,-1.712188721,1,1,1,1,1,35,sad
34:30.7,0.5228055,0.7884534,1.2375654,0.54896724,0.7475546,0.4064138,0.80054796,0.56477153,1.1072558,0.09809468,0.7915323,0.87927586,0.4507531,0.35177034,0.22531494,0.70744294,0.50720894,0.25709456,0.24675892,0.38915563,734.94507,800.6227,802.23444,770,718.022,19.999998,92.00001,-0.18548584,0.218994141,0.953063965,3.633728027,-4.209442139,-1.330871582,1,1,1,1,1,35,sad
34:31.7,0.4280053,0.7884534,1.2070756,0.5641071,0.3578746,0.4064138,0.9563653,0.29769617,0.6556621,0.09809468,0.77763176,0.6282279,0.5220706,0.35177034,0.2288005,0.76767516,0.34181675,0.25709456,0.12608486,0.49556458,736.55676,811.9048,774.43225,749.45056,587.47253,19.999998,100,-0.197570801,0.22479248,0.95526123,2.579498291,-3.102874756,-1.413116455,1,1,1,1,1,35,sad
34:32.7,0.50522155,0.7884534,1.2070756,0.4101986,0.360535,0.4064138,0.9563653,0.1870576,0.74703556,0.09809468,0.77763176,0.66216516,0.59733146,0.35177034,0.2288005,0.8105683,0.57600635,0.25709456,0.12608486,0.620133,790.14655,818.3516,799.41394,815.5311,788.1319,0,100,-0.178710938,0.239562988,0.959716797,3.558959961,-3.678588867,-1.570129395,1,1,1,1,1,35,sad
34:33.8,0.6510898,0.5417823,0.84950596,0.4455008,0.25522906,-0.018633977,0.30788442,0.28898162,0.7896662,0.35996997,0.42639464,0.7612818,0.59087616,0.43053812,0.21516474,0.4457576,0.56353945,0.23772098,-0.028880883,0.4432961,859.85345,803.44324,796.1905,820.7692,896.52014,0,100,-0.174194336,0.229980469,0.960449219,3.327178955,-5.443115234,-1.151428223,1,1,1,1,1,35,sad
34:34.8,0.27266476,0.37143934,0.5429129,0.4446232,0.3379729,0.31576857,-0.21921669,0.445463,0.9123204,0.5783404,0.3545132,0.8537488,0.505979,0.2683957,0.27271646,0.5395542,0.37441924,0.2580458,-0.05743212,0.39269596,818.7546,774.43225,804.65204,844.1392,792.96704,6,100,-0.179626465,0.229797363,0.955444336,3.798217773,-3.880462646,-1.338348389,1,1,1,1,1,35,sad
45:26.6,0.31589836,0.27160275,0.020915234,0.124660306,0.09005817,0.4085759,0.013922531,0.10895057,0.49878117,0.4352181,0.5949178,0.53522825,0.467229,0.629266,0.49031636,0.31712088,0.20579123,0.39065948,0.23878272,0.24370879,782.0879,799.81683,796.99634,796.99634,485.53113,68.00003,100,-0.035949707,0.086669922,0.992614746,3.992614746,-4.187011719,-1.757049561,1,1,1,1,1,25,sad
45:27.6,0.31589836,0.2618517,-0.09406555,0.34861544,0.09005817,0.3848886,-0.02478279,0.21073732,0.49878117,0.558342,0.51300085,0.7172701,0.467229,0.6200047,0.40017512,0.67886454,0.20579123,0.46024895,0.12524636,0.32907432,810.696,815.12823,806.26373,816.7399,765.56775,48.000046,100,-0.032775879,0.086120605,0.99206543,3.364562988,-4.530944824,-1.555175781,1,1,1,1,1,25,sad
45:28.7,-0.063021,0.24699989,-0.38829365,0.23284337,0.07752566,0.16241705,-0.36655602,0.37147465,0.54115486,0.48246887,0.077346124,0.69550955,0.29139805,0.61960995,0.17549539,0.41869935,0.2027572,0.5127606,0.095357835,0.10965067,808.68134,799.011,792.5641,790.14655,748.6447,38.000042,100,-0.02923584,0.080749512,0.994445801,3.379516602,-3.686065674,-1.764526367,1,1,1,1,1,25,sad
45:29.7,0.07686844,-0.11925998,-0.22079974,-0.09823073,0.043261357,-0.3084559,-0.33838028,0.14700736,0.63882804,0.17053935,0.007843777,0.84106594,0.26690993,0.53160685,0.19553354,0.48129863,0.14759138,0.5102642,0.098260336,0.09022441,784.90845,802.6374,802.23444,792.96704,520.989,58.00004,100,-0.027587891,0.082397461,0.993774414,3.185119629,-4.104766846,-1.9140625,1,1,1,1,1,25,sad
45:30.7,0.075824946,-0.09370684,-0.40964988,0.049837142,-0.09453616,-0.22635344,-0.5069795,-0.17470174,0.5336599,0.0572416,0.1354543,0.7813298,0.44388202,0.4238919,0.22434327,0.49349916,0.19718488,0.35627532,0.043116026,0.15874869,829.2308,809.0842,805.8608,815.12823,977.9121,78.00002,100,-0.030395508,0.089172363,0.99810791,4.059906006,-4.164581299,-2.100982666,1,1,1,1,1,25,sad
45:31.7,1.0741857,0.33968136,-0.18353756,1.3084323,0.9127834,0.002878943,-0.32433406,1.1875762,0.79986006,0.25502062,0.18559231,0.9778417,0.47442174,0.3453401,0.23173825,0.53015286,0.11105498,0.34059623,-0.06127477,0.0875469,780.07324,803.8461,803.44324,798.20514,659.59705,62.00004,84.000015,-0.030578613,0.087097168,0.994812012,3.372039795,-4.164581299,-1.86920166,1,1,1,1,1,25,sad
45:32.8,1.0709537,0.3348834,-0.09131254,1.0108525,0.92995006,0.08219028,-0.22289562,0.83790463,0.7685487,0.23133977,0.006897876,0.8375979,0.39209855,0.4891162,0.21338631,0.6169546,0.031481575,0.15831035,-0.08295004,0.14074741,819.9634,802.23444,801.02563,815.9341,938.022,42.000042,64.00003,-0.032287598,0.084899902,0.994689941,3.491668701,-4.149627686,-1.839294434,1,1,1,1,1,25,sad
45:33.8,0.9015169,0.24786027,-0.15396963,1.281071,0.7086127,0.048639912,-0.35461438,0.9989693,0.5914516,0.25577962,0.24570873,0.85561126,0.1597961,0.45247883,0.11600594,0.5319569,0.09995265,0.34117514,-0.06689816,0.18197373,836.8865,782.8938,801.8315,807.8755,1009.7436,22.000036,44.000046,-0.033691406,0.090209961,0.991149902,4.209442139,-3.603820801,-1.345825195,1,1,1,1,1,25,sad
45:34.8,0.87869257,-0.15838614,-0.31276575,1.1369663,0.69528574,-0.16216971,-0.20351368,0.79086274,0.60122734,0.14879774,0.28277624,0.5870204,0.3866162,0.51477295,0.09492337,0.37442067,0.06610183,0.49486926,-0.13510871,0.122652516,786.52014,786.1172,797.3993,799.81683,634.61536,2.0000386,24.000034,-0.035888672,0.091918945,0.995361328,3.603820801,-4.358978271,-1.809387207,1,1,1,1,1,30,sad
45:35.8,0.025474314,-0.20879406,-0.6552724,0.22009748,0.068497345,-0.29020178,-0.347454,-0.15346566,0.45413974,0.17387088,-0.08464544,0.53237754,0.43502414,0.54675144,-0.034281768,0.33770242,0.17058,0.40229562,0.002585721,0.20617026,754.68866,807.0696,804.2491,749.0476,716.4103,0,30.000036,-0.020507813,0.08795166,0.993347168,3.252410889,-3.96270752,-1.04675293,1,1,1,1,1,30,sad
45:36.8,0.7941162,0.07408084,-0.2839791,1.2067518,0.6806056,0.019087266,-0.2645507,1.1267067,0.62151694,0.2679164,-0.006162962,0.8718064,0.19918172,0.47915098,0.017766993,0.28068945,0.18373609,0.27698374,0.005079639,0.1980162,796.1905,806.26373,793.36993,785.7143,720.84247,0,24.000034,-0.030883789,0.09185791,0.99609375,3.656158447,-4.411315918,-1.233673096,1,1,1,1,1,30,sad
45:37.8,-0.22762604,-0.22591427,-0.17556946,0.94889504,-0.1999967,-0.18004009,-0.26675573,0.79692185,0.43848372,0.33099928,0.15373755,0.9152622,0.38514942,0.5334954,0.16796027,0.45962065,0.021924961,0.26244015,-0.07564298,-0.057643913,783.69965,792.96704,796.99634,790.9524,668.0586,0,4.0000386,-0.030944824,0.094299316,0.993103027,3.087921143,-4.583282471,-1.502838135,1,1,1,1,1,30,sad
45:38.9,-0.02109988,-0.279293,-0.24449922,0.08554815,-0.09510044,0.031171234,-0.38742825,-0.043876443,0.51120526,0.25704873,0.203666,0.62994146,0.31889945,0.44264683,0.11771006,0.36446223,0.111181304,0.2833705,0.06699041,0.094880864,806.26373,791.3553,798.60803,794.57874,736.1539,17.999998,22.000036,-0.025817871,0.091491699,0.995422363,3.902893066,-4.336547852,-1.727142334,1,1,1,1,1,30,sad
45:39.9,0.057405796,-0.07631171,-0.14747831,-0.20297705,0.05761306,0.15017208,-0.2646584,0.1472867,0.50051063,0.13124417,0.13074009,0.44646057,0.39912975,0.2725293,0.27110958,0.4643409,0.13068283,0.15533662,-0.053800136,0.30147284,790.54944,801.8315,797.8022,795.78754,716.4103,25.999996,42.000042,-0.032043457,0.08996582,0.992492676,3.89541626,-4.007568359,-1.510314941,1,1,1,1,1,30,sad
45:40.9,0.1499271,-0.043535337,-0.3180999,-0.43235272,0.17601268,-0.05723334,-0.14371383,-0.085691586,0.073734835,0.05403315,-0.078397855,0.26320794,0.48034593,0.3584623,0.19515042,0.5102151,0.06671883,0.21812679,0.004167005,0.271321,800.2198,799.011,799.81683,792.96704,585.05493,4,64.00003,-0.033081055,0.091064453,0.992553711,2.98324585,-4.859924316,-1.435546875,1,1,1,1,1,30,sad
45:41.9,0.19208306,0.28244704,-0.49596065,-0.40441775,0.21562304,-0.034160897,-0.30831975,-0.47479147,-0.068075866,-0.07972259,-1.84E-04,-0.13017942,0.34114796,0.42512357,0.20067984,0.4141074,-0.10456583,0.22298846,-0.010900754,0.19949576,809.4872,807.0696,807.8755,801.4286,730.9158,0,82.000015,-0.030761719,0.090881348,0.993591309,3.424377441,-3.476715088,-1.592559814,1,1,1,1,1,30,sad
45:43.0,-0.14357723,-0.13027775,-0.59383464,-0.2286363,-0.22079141,-0.14459251,-0.31972608,-0.35368133,0.34748438,0.12293625,0.0243871,0.43588033,0.18872945,0.45551097,0.16514865,0.3906122,0.2352367,0.23273858,0.13198131,0.061602302,778.0586,797.3993,794.9817,799.011,708.3516,0,100,-0.027099609,0.091064453,0.994995117,3.289794922,-4.059906006,-1.353302002,1,1,1,1,1,30,sad
45:44.0,-0.1011888,-0.23886552,-0.42416853,-0.3974369,-0.014741255,-0.26446941,-0.05751307,-0.25930557,0.66337156,0.41657847,0.08596702,0.45827127,0.38470307,0.50400126,0.20840393,0.4763976,0.2350108,0.19036385,0.13964376,0.21495478,788.1319,811.0989,794.57874,788.93774,692.23444,13.999998,100,-0.025939941,0.091247559,0.993286133,3.78326416,-4.029998779,-1.607513428,1,1,1,1,1,30,sad
45:45.0,-0.081835166,-0.22428414,-0.44498217,-0.11480517,0.008078891,-0.22698906,-0.22575547,-0.07953589,0.6489534,0.3808271,0.00611431,0.36724502,0.51793635,0.48565316,0.3926836,0.6144863,0.20923227,0.18739033,0.183787,0.33606455,791.75824,799.011,800.6227,800.2198,751.8681,11.999999,100,-0.030639648,0.086791992,0.989074707,3.521575928,-3.87298584,-1.480407715,1,1,1,1,1,30,sad
45:46.0,-0.051329106,-0.23357655,-0.58177775,-0.3508929,0.22404148,-0.15638937,-0.46981388,-0.43603405,0.4563253,-0.09121827,0.003757503,0.3725398,0.45702082,0.44910297,0.27679995,0.5364973,0.14545815,0.25922367,0.08533238,0.3312902,815.12823,801.02563,805.05493,796.5934,940.0366,0,100,-0.02331543,0.089050293,0.993591309,3.267364502,-4.366455078,-1.719665527,1,1,1,1,1,30,sad
45:47.0,0.3188823,-0.22681887,-0.41191188,-0.29167515,0.5289323,-0.13462901,-0.33292606,-0.043244075,0.7204721,-0.06844758,0.03083757,0.4702779,0.28908047,0.47497353,0.16151021,0.31115675,0.116344385,0.39552057,-0.07349394,0.20866199,810.696,797.3993,799.011,787.72894,810.293,0,100,-0.01940918,0.093322754,0.993347168,3.611297607,-3.80569458,-1.106567383,1,1,1,1,1,30,sad
45:48.1,1.2216616,0.19270644,-0.43894574,-0.23703678,1.0805515,0.10738588,-0.25292695,0.15035,1.1001107,0.189393,0.15472154,0.33285284,0.3357891,0.3999724,0.31539652,0.08485904,0.007302932,0.3499602,-0.053069346,0.091254056,796.5934,798.20514,797.3993,801.4286,863.8828,0,100,-0.023010254,0.090881348,0.99407959,3.207550049,-4.403839111,-1.323394775,1,1,1,1,1,30,sad
45:49.1,0.27688548,-0.2767938,-0.33881578,-0.10848899,0.10392101,-0.24563716,-0.21481328,0.14396718,0.7707456,0.2667805,0.04967582,0.5314492,0.19112125,0.43486032,0.2747707,0.47358516,0.10373782,0.28247216,0.10520298,0.13913977,797.8022,789.7436,796.1905,790.54944,801.4286,6,86.000015,-0.027038574,0.08581543,0.995910645,3.192596436,-4.299163818,-2.377624512,1,1,1,1,1,30,sad
45:50.1,-0.033883646,-0.26042166,-0.5564174,-0.38870248,0.1377033,-0.56067353,-0.20104419,0.008499133,0.67739356,0.11550018,-0.32586598,0.37420687,0.36566395,0.45644417,0.25216517,0.5156427,0.119091004,0.24697605,0.034745388,0.21009739,792.5641,782.8938,799.011,809.0842,860.2564,21.999996,100,-0.025756836,0.095581055,0.994445801,3.618774414,-3.955230713,-1.764526367,1,1,1,1,1,30,sad
45:51.1,0.0390962,-0.20057967,-0.47034526,-0.2967625,0.12148393,-0.6667874,-0.38010845,-0.20604059,0.46406823,0.34953877,0.083663,0.40944016,0.39833334,0.41239557,0.19695665,0.5518793,0.095042266,0.27926546,0.12975755,0.52450293,806.6667,788.5348,806.6667,807.8755,927.1429,4,100,-0.016357422,0.088134766,0.999084473,3.401947021,-4.620666504,-1.973876953,1,1,1,1,1,30,sad
45:52.2,0.24334739,0.00655371,0.097603954,0.10508869,0.096893564,-0.28079745,-0.27557388,0.034458313,0.56695354,0.32009313,0.23103537,0.5123855,0.39622152,0.42155054,0.04893963,0.5213048,0.10952985,0.39913774,0.035100095,0.2454889,786.52014,799.41394,796.1905,790.54944,780.87915,0,100,-0.017333984,0.090637207,0.992736816,3.611297607,-3.970184326,-1.973876953,1,1,1,1,1,30,sad
45:53.2,0.470244,-0.15930088,0.091067106,0.2170474,0.2644592,-0.11668291,-0.18268807,-0.02904402,0.72447044,0.20997298,0.27697194,0.51421297,0.41408727,0.3377485,0.22359508,0.45808208,0.2472694,0.34444842,0.046956,0.4448736,789.7436,792.1612,809.4872,799.41394,807.8755,0,100,-0.038696289,0.091918945,0.993713379,3.020629883,-3.641204834,-2.646789551,1,1,1,1,1,30,sad
45:54.2,-0.014117103,0.33740383,-0.49292067,0.13794969,-0.12480756,-0.16866648,-0.44927672,0.020425335,0.556071,0.15426257,0.11272262,0.59715307,0.5301236,0.27012685,0.30348822,0.5714388,0.50057673,0.28997144,0.16618033,0.6155675,804.2491,828.8278,826.8132,828.022,668.86444,0,100,-0.06262207,0.10369873,1.005493164,2.721557617,-3.102874756,0.358886719,1,1,1,1,1,30,sad
45:55.2,0.46102777,0.3366617,0.36679578,0.6359895,0.5571903,-0.09600381,-0.02686816,0.07710633,0.6790856,-0.012555893,0.29426312,0.47922564,0.562056,0.1195169,0.44592503,0.48547295,0.5629572,0.09608027,0.40378404,0.6817547,828.8278,810.696,815.5311,810.293,804.65204,0,100,-0.074768066,0.12286377,0.99206543,4.269256592,-2.82623291,-1.084136963,1,1,1,1,1,30,sad
45:56.2,0.34475747,0.18680546,0.80126214,0.5376616,0.5244229,-0.061057203,0.35264933,0.08026865,0.6835963,0.44463524,0.37821984,0.41254863,0.67162573,0.37517977,0.5041646,0.62070423,0.64019305,0.5511026,0.39983755,0.75493336,822.7839,799.011,799.81683,820.3663,795.78754,0,100,-0.098693848,0.125671387,0.987182617,4.284210205,-1.263580322,-0.897216797,1,1,1,1,1,30,sad
45:57.3,0.22346625,0.2880473,0.57908887,0.07188362,0.21851386,-0.1442927,-0.1950122,-0.038279574,0.61461115,0.47983316,0.1449762,0.5152398,0.77378774,0.41578886,0.60583055,0.6577306,0.5755785,0.45549196,0.37919313,0.73878556,829.2308,808.68134,818.7546,810.696,672.0879,0,100,-0.124755859,0.115661621,0.985900879,1.173858643,-5.241241455,-3.461761475,1,1,1,1,1,30,sad
45:58.3,0.36621904,0.117931835,0.4804817,0.03725851,0.098479986,-0.15128075,-0.43673292,-0.08953194,0.6249356,0.22144249,0.19433407,0.6565681,0.73274297,0.6230765,0.6866876,0.9085501,0.5323482,0.4125214,0.59344196,0.6314882,792.1612,790.9524,780.87915,808.68134,745.82416,0,100,-0.118713379,0.111633301,0.98260498,3.641204834,-3.394470215,-2.407531738,1,1,1,1,1,30,sad
45:59.3,0.34218156,0.25913072,0.38415334,-0.005056355,-0.11831519,0.07160421,-0.4546484,-0.03479145,0.61501694,0.23445565,0.04726233,0.79857755,0.6579269,0.45194092,0.60405755,0.7823521,0.5166574,0.46344495,0.47710752,0.5011212,792.1612,793.36993,800.6227,795.78754,921.0989,0,100,-0.11529541,0.106750488,0.986328125,3.581390381,-1.689758301,-2.80380249,1,1,1,1,1,30,sad
46:00.3,0.07341412,-0.09105804,0.32837263,0.045745242,0.096568905,-0.004305837,-0.41934973,-0.24176908,0.71162623,0.4887106,-0.019109882,0.8329335,0.73839235,0.42138436,0.5746758,0.67631716,0.52839,0.30292553,0.45815405,0.5323861,785.31134,801.4286,784.10254,782.8938,922.3077,0,100,-0.128051758,0.108459473,0.984130859,3.9402771,-4.501037598,-0.904693604,1,1,1,1,1,30,sad
46:01.4,-0.16613558,-0.4613253,0.012253063,-0.30419967,0.3139618,-0.26922002,-0.5424353,0.08166459,1.0725752,0.66465175,0.38088277,1.2989204,0.6813375,0.5739048,0.4380509,0.7656887,0.49547118,0.48178542,0.32357228,0.51300275,782.0879,807.47253,808.2784,812.71063,1079.8535,9.999999,100,-0.12310791,0.116271973,0.979125977,2.743988037,-3.798217773,-1.614990234,1,1,1,1,1,30,sad
46:02.4,0.29471305,0.015998263,-0.05776485,0.2816665,0.3407642,-0.008177641,-0.058990277,0.49150717,1.0104132,0.61833614,0.44857728,1.2955165,0.7286426,0.65415704,0.59648114,0.72195816,0.62165403,0.63474256,0.456741,0.5531498,789.34064,790.14655,808.68134,802.23444,840.10986,29.999998,100,-0.12677002,0.120666504,0.979125977,3.701019287,-4.471130371,-1.413116455,1,1,1,1,1,30,sad
46:03.4,0.2654004,-0.18263082,0.6247436,0.31101832,0.12280497,-0.016811365,0.08480037,0.07179425,0.6543539,0.510757,0.34938312,0.9936783,0.7391169,0.5822662,0.71726596,0.7383477,0.53914,0.3488804,0.5951751,0.68249035,801.4286,796.99634,816.7399,823.5897,872.74725,44.000008,100,-0.128173828,0.114257813,0.982666016,3.185119629,-3.76083374,-1.248626709,1,1,1,1,1,30,sad
46:04.4,0.011093604,-0.21795467,0.97604483,0.29791507,0.19112925,-0.08801,0.20500861,0.1308565,0.86511403,0.38897732,0.36316305,1.071466,0.74450135,0.5297326,0.47036827,0.7320043,0.5429918,0.46736586,0.4646096,0.41768995,787.72894,792.5641,766.77655,790.54944,784.90845,56,100,-0.141113281,0.110717773,0.981323242,3.259887695,-2.945861816,-1.360778809,1,1,1,1,1,30,sad
46:05.4,0.23010404,-0.02685718,0.65228975,0.4317021,0.26027843,-0.4741178,-0.24643463,0.12634881,0.78836566,0.22830066,0.3140243,0.89387137,0.599904,0.5382263,0.44004366,0.69724995,0.4883736,0.3824999,0.37091088,0.5420957,780.87915,804.2491,794.9817,791.75824,767.1795,73.999985,100,-0.142272949,0.124755859,0.982727051,3.050537109,-4.269256592,-1.532745361,1,1,1,1,1,30,sad
46:06.5,0.06573145,-0.16732742,0.21348181,0.32465556,0.19698565,-0.412838,-0.2969613,-0.10737757,0.9780166,0.26496068,0.10790221,0.33885005,0.69226617,0.5545528,0.23338303,0.61428076,0.49181277,0.4362089,0.23626383,0.4551742,786.9231,811.0989,793.36993,810.696,695.4579,73.999985,100,-0.149230957,0.121154785,0.983886719,2.87109375,-4.501037598,-2.856140137,1,1,1,1,1,30,sad
46:07.5,0.09181207,-0.31644025,-0.18240812,0.083230585,0.42898288,-0.23974027,-0.19701806,0.10009139,1.0573776,0.17087905,0.20197824,0.758882,0.682223,0.4028138,0.2327485,0.51464254,0.5130621,0.35802236,0.19439597,0.390029,799.41394,801.02563,786.9231,792.96704,720.4396,89.99997,100,-0.140625,0.109863281,0.981872559,2.975769043,-4.553375244,-2.325286865,1,1,1,1,1,30,sad
46:08.5,0.08826077,-0.43702522,0.044048004,0.104639366,0.42906812,-0.35325116,-0.29597571,0.081456445,0.85473025,0.09449069,0.1568414,0.7158441,0.69987726,0.49183077,0.6070869,0.96122324,0.6461092,0.47156268,0.7246328,0.86525327,794.9817,804.2491,795.38464,803.8461,718.8278,85.99997,100,-0.144958496,0.101135254,0.980651855,4.000091553,-4.276733398,-1.719665527,1,1,1,1,1,30,sad
46:09.5,0.006769635,-0.2979273,0.16433205,-0.111892715,0.1698132,-0.7183994,-0.33659953,-7.40E-04,0.86778295,-0.016202943,0.29842752,0.7930821,0.65223557,0.38650504,0.6523344,0.8570609,0.57972026,0.34850734,0.64486164,0.71979004,799.41394,821.1722,797.8022,793.36993,908.20514,71.999985,100,-0.131469727,0.116149902,0.981384277,2.699127197,-5.465545654,-1.525268555,1,1,1,1,1,30,sad
46:10.5,0.23127984,-0.3178343,0.15943046,0.060496423,0.18752119,-0.504122,-0.26483092,-0.134748,0.7847766,0.07766837,0.19721167,0.40825704,0.6437657,0.47615376,0.5759512,0.78389686,0.57306623,0.17300905,0.4249647,0.7144887,830.4396,807.0696,815.12823,814.7253,729.707,65.99999,100,-0.138061523,0.127319336,0.983825684,3.708496094,-3.379516602,-1.644897461,1,1,1,1,1,30,sad
46:11.6,0.41533396,0.27818185,0.2661502,0.46020958,0.13244857,0.072536826,0.001719019,0.24325904,0.5944359,0.24478473,0.11156679,0.5876103,0.69602406,0.39416572,0.5371842,0.75958365,0.40968814,0.12678176,0.39162192,0.6567275,811.0989,797.3993,804.2491,802.6374,734.94507,46.000004,100,-0.131835938,0.139160156,0.988586426,3.641204834,-4.187011719,-1.93649292,1,1,1,1,1,30,sad
46:12.6,0.58067286,-0.03528131,0.45384094,0.44171217,0.2506866,0.23018919,0.08021271,0.4232432,0.6400117,0.15229638,0.079750754,0.5754215,0.77172476,0.4356152,0.56727934,0.8564614,0.55608237,0.122166075,0.33698627,0.6259085,804.65204,858.6447,794.17584,808.68134,705.9341,25.999992,100,-0.131713867,0.13470459,0.983642578,3.327178955,-1.929016113,-0.269165039,1,1,1,1,1,30,sad
46:13.6,0.2237135,-0.05221777,0.2474496,0.37762362,0.25082126,0.224704,-0.40010566,0.23965138,0.78272414,0.11486423,0.11473788,0.45836774,0.6422365,0.47811693,0.40109977,0.64323276,0.5035555,0.059849698,0.23872773,0.5231472,797.8022,811.9048,799.011,787.72894,739.3773,5.9999967,100,-0.154052734,0.140075684,0.977539063,3.633728027,-3.147735596,-1.525268555,1,1,1,1,1,30,sad
46:14.6,0.38561663,0.5749539,0.15791714,0.08919887,0.09517354,0.56785315,-0.42314008,0.04345751,0.87437236,0.6208667,-0.001044003,0.4663186,0.6373083,0.69503367,0.3552245,0.6523752,0.48230055,0.44934958,0.13642743,0.53443545,786.52014,805.8608,798.20514,787.72894,818.3516,0,100,-0.133422852,0.142883301,0.982788086,4.089813232,-4.134674072,-1.487884521,1,1,1,1,1,30,sad
46:15.6,0.15069303,0.21263063,-0.3281612,0.12078386,-0.0901224,-0.45454666,-0.5340155,0.37745804,0.61920166,0.11593022,-0.0963919,1.2999336,0.7406198,0.5735607,0.51814425,0.817919,0.55226773,0.44382325,0.35466242,0.6116251,820.7692,806.6667,810.293,798.60803,736.55676,4,100,-0.153442383,0.13659668,0.974975586,3.955230713,-3.140258789,-1.562652588,1,1,1,1,1,30,sad
46:16.7,0.24226956,0.14849767,-0.54457533,-0.014176614,0.20478868,-0.054357678,-0.19966254,0.72197646,0.7371023,0.17407703,0.07276202,1.3570797,0.709066,0.5119295,0.3940713,0.7601954,0.3486692,0.22163244,0.0839947,0.7311046,807.0696,793.36993,792.1612,803.0403,819.15753,23.999996,100,-0.154296875,0.13671875,0.980895996,3.319702148,-3.439331055,-1.428070068,1,1,1,1,1,30,sad
46:17.7,0.43620312,0.3735116,-0.21126814,0.079027295,0.3002265,0.2158052,-0.12922564,-0.028654508,0.73375714,0.31878564,0.15629986,0.9197586,0.649504,0.5124381,0.43485314,0.98995507,0.30283776,0.6901713,0.43351144,1.1422126,739.7802,855.0183,741.79486,839.304,882.01465,32,100,-0.149353027,0.145996094,0.982910156,3.319702148,-3.790740967,-1.77947998,1,1,1,1,1,30,sad
46:18.7,0.43620312,0.3735116,0.077638276,0.23408185,0.3002265,0.2158052,-0.040369745,-0.2739023,0.73375714,0.31878564,0.32751316,0.8734325,0.649504,0.5124381,0.70946,1.1780448,0.30283776,0.6901713,1.0511835,1.30418,785.7143,807.8755,780.87915,818.7546,750.65936,11.999999,100,-0.155517578,0.14239502,0.971374512,3.252410889,-2.901000977,-1.106567383,1,1,1,1,1,30,sad
46:19.7,0.43620312,0.6217447,-0.073951066,0.23408185,0.3002265,0.63970995,-0.008829102,-0.2739023,0.73375714,0.3562646,0.30315533,0.8734325,0.649504,0.3229993,0.7393662,1.1780448,0.30283776,0.49848413,1.1599864,1.30418,808.2784,802.6374,785.7143,830.4396,863.0769,0,100,-0.150085449,0.143249512,0.972717285,2.908477783,-4.658050537,-1.644897461,1,1,1,1,1,30,sad
46:20.7,0.5866201,0.74662024,-0.073951066,0.75177366,0.23522533,0.40653428,-0.008829102,0.44676077,1.0878354,0.5820172,0.30315533,0.6903921,0.7537397,0.52694076,0.7393662,0.78914857,0.9239187,0.43193254,1.1599864,0.7001097,823.9927,824.3956,795.78754,796.5934,616.4835,0,100,-0.153930664,0.134338379,0.978088379,3.274841309,-3.558959961,-1.809387207,1,1,1,1,1,30,sad
46:21.7,0.5843199,1.1212903,0.002552658,0.6000914,0.24078833,0.4344202,-0.28152877,0.35122478,1.1539048,0.7733156,0.21308494,0.8169438,0.8584892,0.6733775,0.5552475,0.7641554,0.7402888,0.51829994,0.11738929,0.75823385,790.9524,824.7985,798.20514,809.4872,843.73627,0,100,-0.154602051,0.139587402,0.979370117,3.342132568,-4.493560791,-1.89163208,1,1,1,1,1,30,sad
46:22.8,0.7033215,1.2255418,0.08106407,0.29293415,0.4794063,0.5002804,0.07623,0.14720425,0.83621544,0.69979185,0.50581855,0.6601123,0.7650583,0.70029944,0.44105,0.78981954,0.44177276,0.6287044,0.40534568,0.6964111,782.49084,813.91943,801.8315,782.8938,717.2161,0,100,-0.16027832,0.128417969,0.975341797,3.514099121,-3.424377441,-1.996307373,1,1,1,1,1,30,sad
46:23.8,0.5199474,0.26472235,-0.14993207,0.029090416,0.44664878,0.08592193,-0.08687588,-0.06848282,0.65048677,0.35418412,0.43491635,0.39698723,0.76897454,0.57413703,0.34760788,0.7963591,0.61580795,0.11075719,0.42769638,0.75899225,798.20514,818.7546,802.6374,810.293,742.1978,0,100,-0.164550781,0.136962891,0.972351074,3.91784668,-3.252410889,-1.8019104,1,1,1,1,1,30,sad
46:24.8,0.53681743,0.52352834,-0.040181886,0.43470907,0.31191927,-0.05308945,-0.39988312,0.09311827,0.8335766,0.35020164,0.30489683,0.63306165,0.73311096,0.6763356,0.40359816,0.7905008,0.5643928,0.21472862,0.27659497,0.566352,788.93774,779.67035,784.5055,800.6227,686.5934,0,100,-0.163085938,0.139953613,0.972717285,4.112243652,-2.953338623,-1.764526367,1,1,1,1,1,30,sad
46:25.8,0.3143914,0.7586677,-0.018924909,0.59783626,0.42786592,-0.042446654,-0.29809234,0.3589296,0.98881745,0.38250652,0.39760247,1.228274,0.55754024,0.45498943,0.42331535,0.68050516,0.2945756,0.3677166,0.21720514,0.3357848,801.8315,794.9817,790.54944,810.293,794.57874,11.999999,94.00001,-0.159790039,0.147705078,0.976318359,3.865509033,-3.499145508,-1.600036621,1,1,1,1,1,30,sad
46:26.8,0.26310146,0.5916404,-0.20231596,0.2794422,0.3478199,-0.08281207,-0.15196896,0.5737973,0.84825146,0.33548322,0.39883024,1.2409879,0.5433998,0.5041492,0.20250261,0.4277621,0.16909236,0.29319212,-0.10608059,0.29405418,812.71063,812.3077,810.293,811.0989,656.77655,32,74.00002,-0.15814209,0.136535645,0.976745605,3.439331055,-4.149627686,-1.831817627,1,1,1,1,1,30,sad
46:27.8,0.23645881,0.7629291,-0.3329477,-0.18665443,0.35741842,0.70813644,-0.085664324,0.5327557,1.0060798,0.910621,0.27853128,1.0015223,0.5189792,0.6484564,0.3382164,0.51342386,0.25114816,0.22225244,0.08348884,0.28739494,810.293,811.9048,797.8022,799.011,657.1795,52.000004,66.00003,-0.164978027,0.14276123,0.974121094,3.820648193,-2.923431396,-1.188812256,1,1,1,1,1,30,sad
46:28.9,1.207994,0.6475765,0.11773141,1.124139,0.93480664,0.44295967,-0.0684952,1.0148679,0.7634386,0.90247774,0.26544625,0.8592983,0.69381076,0.6352503,0.47391745,0.7005861,0.41689646,0.2528663,0.3467345,0.30852017,802.23444,822.7839,807.47253,805.8608,726.8865,54.000004,46.000046,-0.173095703,0.139892578,0.972900391,3.835601807,-3.753356934,-2.818756104,1,1,1,1,1,30,sad
46:29.9,1.5021216,0.51679164,0.30988058,1.4449166,1.2821739,0.10598435,-0.18681146,1.2041305,0.9879009,0.50127727,0.2918874,0.85662705,0.7982582,0.7715935,0.62427825,0.6869399,0.6430689,0.50590074,0.5168061,0.50572467,793.7729,808.2784,803.44324,787.326,743.00366,31.999996,24.000034,-0.171142578,0.142883301,0.973754883,3.970184326,-3.69354248,-1.420593262,1,1,1,1,1,30,sad
46:30.9,1.2842765,0.18789297,-0.122855105,-0.08133179,1.1170007,-0.14561294,-0.35462105,0.010952888,0.98551375,0.39215097,0.2734961,0.5255312,0.70041114,0.6289662,0.46063924,0.8225946,0.5164291,0.44104508,0.41181156,0.68958634,803.0403,795.38464,798.60803,789.34064,755.89746,11.999996,22.000036,-0.161193848,0.137145996,0.981079102,2.990722656,-4.867401123,-1.899108887,1,1,1,1,1,30,sad
46:31.9,0.26680225,-0.19417492,-0.081080474,0.4767922,0.36172265,-0.31955934,-0.5017374,0.2826573,0.33648098,0.38178563,0.2686056,0.6511976,0.6312368,0.7164052,0.27892822,1.0098916,0.65203935,0.43287766,0.4420009,0.85875607,797.8022,791.75824,788.5348,800.2198,688.20514,0,42.000042,-0.173461914,0.142272949,0.974304199,3.252410889,-4.418792725,-1.256103516,1,1,1,1,1,30,sad
46:32.9,0.9410246,-0.09157193,0.087384574,0.72963125,0.7358722,0.1005784,-0.19420956,0.45339295,0.8690964,0.4933746,0.036516927,0.50444233,0.5250017,0.41071677,0.36851853,1.0448083,0.5423506,0.14737536,0.18543315,0.8654105,779.2674,796.99634,795.78754,806.26373,761.53845,0,62.00004,-0.175842285,0.137573242,0.971191406,2.542114258,-3.775787354,-3.626251221,1,1,1,1,1,30,sad
46:34.0,1.4070448,0.17034568,2.61E-05,1.3867596,1.124045,0.34320214,-0.55279595,1.1789325,1.1076908,0.49133483,0.049661145,0.7941331,0.7468129,0.34407875,0.687971,0.85994285,0.53508145,0.10728417,0.6014464,0.77619535,789.7436,805.8608,793.36993,797.8022,764.35895,0,64.00003,-0.18347168,0.144714355,0.968933105,3.828125,-2.98324585,-1.555175781,1,1,1,1,1,30,sad
46:35.0,1.2685448,0.19752571,0.46102208,1.1973505,0.95813245,0.3404976,-0.13013026,0.9635903,1.0676199,0.491,0.12458103,0.84939045,0.7045015,0.32404804,0.59883475,0.74714535,0.48464653,0.08312124,0.34005788,0.68553394,795.78754,807.8755,787.326,823.1868,740.18317,0,42.000042,-0.181762695,0.146911621,0.972351074,3.469238281,-5.667419434,-1.226196289,1,1,1,1,1,30,sad
46:36.0,1.1613419,0.19752571,0.68429893,0.42715818,0.7906081,0.3404976,0.11000315,0.3805031,1.021461,0.491,0.41400808,0.8406611,0.81718093,0.32404804,0.49218085,0.8060027,0.45104247,0.08312124,0.36950842,0.7252574,809.89014,836.08057,790.54944,790.9524,805.8608,0,56.000042,-0.180847168,0.150390625,0.976745605,3.125305176,-4.007568359,-1.465454102,1,1,1,1,1,30,sad
46:37.0,1.1304914,0.19752571,0.7337371,0.5979667,1.0382216,0.3404976,-0.08452978,0.31780282,1.0939932,0.491,0.41252294,0.82635087,0.92561936,0.32404804,0.5006515,0.7973445,0.55246085,0.08312124,0.381123,0.7256404,791.3553,799.41394,775.2381,803.0403,724.4689,0,76.00002,-0.173828125,0.14855957,0.975219727,3.970184326,-4.067382813,-1.158905029,1,1,1,1,1,30,sad
46:38.0,0.96435946,0.19752571,0.79516196,0.87754035,0.7695137,0.3404976,0.2199033,0.73304796,1.2286073,0.491,0.43306965,0.8742745,0.79574275,0.32404804,0.50103045,0.82775664,0.6340844,0.08312124,0.4183879,0.66017413,806.26373,823.1868,786.1172,788.5348,715.6044,0,96,-0.168762207,0.153625488,0.972717285,2.557067871,-3.229980469,-1.338348389,1,1,1,1,1,30,sad
46:39.1,0.85908693,0.8552251,1.0166472,0.68302923,0.24599418,0.68195367,0.4988217,0.62380546,0.87317514,1.0233259,0.39780232,0.6516106,0.6675025,0.55695355,0.41901392,0.8246614,0.55533,0.45240018,0.40827468,0.5757082,801.8315,804.65204,793.7729,804.2491,852.1978,0,100,-0.172363281,0.143676758,0.976806641,3.80569458,-4.67300415,-2.175750732,1,1,1,1,1,30,sad
46:40.1,0.87172186,0.9918106,0.39166245,0.5244685,0.40700632,0.4267034,0.03426006,0.45612657,0.57114655,0.69926816,0.29249123,0.9968966,0.65396893,0.58880776,0.44057044,0.75325495,0.6054971,0.342788,0.3697401,0.7108297,813.5165,825.2015,803.8461,789.7436,725.2747,0,100,-0.165405273,0.151977539,0.970397949,3.947753906,-4.112243652,-0.358886719,1,1,1,1,1,30,sad
46:41.1,0.948016,0.9004783,0.11954139,0.31971025,0.7402906,0.37067056,-0.20572427,0.46417564,0.65816075,0.6377128,0.32752725,1.0218389,0.7640303,0.7384906,0.41137293,0.5654139,0.69591546,0.3758069,0.43504307,0.6188085,786.1172,832.0513,803.0403,807.47253,769.59705,0,100,-0.175842285,0.154907227,0.975830078,3.536529541,-2.773895264,-1.106567383,1,1,1,1,1,30,sad
46:42.1,0.73418456,0.40025452,-0.10515167,0.7738473,0.7306658,-0.18121894,-0.29457274,0.7114315,1.0275946,0.47337362,0.03113604,1.0848976,0.68963367,0.78273207,0.36417297,0.59601957,0.33034113,0.3597248,0.43144694,0.54517967,787.72894,783.2967,804.2491,785.7143,823.9927,13.999998,94.00001,-0.160888672,0.146911621,0.971984863,3.252410889,-5.667419434,-1.82434082,1,1,1,1,1,30,sad
46:43.2,0.9438737,0.09120453,0.33286846,0.93190205,0.56712383,-0.25161234,-0.4193329,0.84086215,0.85418844,0.48905107,0.19825321,1.0928928,0.71759737,0.69190603,0.36201206,0.78687155,0.29793522,0.23816642,0.28723952,0.39155492,792.96704,797.8022,795.78754,789.34064,817.5458,9.999999,74.00002,-0.166992188,0.151428223,0.981567383,3.424377441,-4.83001709,-1.585083008,1,1,1,1,1,30,sad
46:44.2,0.5300628,-0.34234178,0.16804509,0.22957727,0.26228955,-0.10981248,-0.275837,0.08029473,0.63185257,0.3666987,0.18713178,0.8692244,0.68308693,0.5391878,0.42954257,0.72384506,0.28192833,0.23456056,0.2771337,0.35506213,789.34064,805.05493,801.8315,811.0989,761.13556,0,84.000015,-0.182189941,0.156433105,0.971496582,3.887939453,-4.269256592,-1.734619141,1,1,1,1,1,30,sad
46:45.2,0.2623387,-0.28619593,-0.20697781,0.1287815,0.030491602,-0.12860528,-0.39113718,-0.03570238,0.780995,0.34626794,0.23500097,0.9005928,0.5731336,0.40315425,0.38920167,0.39682904,0.09470042,0.15253572,0.16992141,0.20547147,809.0842,804.65204,806.26373,795.38464,731.31866,9.999999,100,-0.17779541,0.157836914,0.969787598,3.087921143,-4.67300415,-1.323394775,1,1,1,1,1,30,sad
46:46.2,0.41570446,-0.21505257,-0.17304246,-0.009295679,0.31393856,-0.2771476,-0.42192435,0.0585116,1.2440064,0.20209202,-0.03072512,1.2496449,0.43448865,0.31554988,0.24986981,0.36149862,0.0785027,0.19702408,0.15301803,0.26255754,778.0586,793.7729,778.46155,783.69965,757.1062,27.999996,82.000015,-0.181152344,0.156799316,0.970458984,3.215026855,-3.484191895,-1.502838135,1,1,1,1,1,30,sad
46:47.3,0.5071231,-0.10612017,-0.18969406,-0.14713636,0.35578147,0.055658925,-0.37506643,-0.02650219,1.209188,0.13151263,-0.014405678,1.2024426,0.3971539,0.2766549,0.35175547,0.6205901,0.31510997,0.288203,0.3229843,0.44293687,805.8608,798.60803,794.17584,815.5311,844.1392,48.000008,64.00003,-0.168029785,0.155456543,0.975158691,4.418792725,-4.306640625,-0.807495117,1,1,1,1,1,30,sad
46:48.3,0.075787365,-0.08377351,-0.038285688,0.020427307,0.19233811,-0.2202997,-0.34255016,0.001214056,1.3433259,0.3209279,0.018390365,0.9066125,0.5775975,0.40343976,0.27288386,0.75511825,0.32103932,0.098275155,0.15242441,0.28579128,783.2967,815.12823,798.60803,792.5641,781.28204,69.999985,48.000046,-0.168273926,0.158752441,0.976013184,3.394470215,-4.306640625,-1.158905029,1,1,1,1,1,30,sad
46:49.3,0.032735057,0.30853155,0.02681469,0.11714833,0.093591556,-0.06907733,-0.3282735,0.23856422,1.1416882,0.40531242,0.4904797,1.0266634,0.6842525,0.41932112,0.6545094,0.9748522,0.53256047,0.40436867,0.804358,0.8027356,823.9927,789.34064,801.4286,772.4176,823.5897,89.99997,60.00004,-0.153259277,0.152954102,0.97467041,4.201965332,-5.099182129,-1.435546875,1,1,1,1,1,30,sad
46:50.3,0.32149872,0.07210584,-0.4911733,0.020173663,0.024421783,-0.025965206,-0.14126678,0.22451791,0.8213076,0.52411765,0.48452422,1.013107,0.96521854,0.89429253,0.78461367,1.134375,1.1638659,0.8987419,0.9457882,1.0492669,806.26373,802.6374,800.2198,764.35895,819.5604,75.999985,80.000015,-0.156982422,0.157897949,0.97845459,3.491668701,-4.448699951,-1.196289063,1,1,1,1,1,30,sad
46:51.4,0.32149872,-0.087853834,0.016012441,0.020173663,0.024421783,0.026000824,-0.16826196,0.22451791,0.8213076,0.5565668,0.40149608,1.013107,0.96521854,0.9671885,0.70498717,1.134375,1.1638659,0.8955307,0.8605243,1.0492669,910.6227,750.65936,759.92676,840.5128,739.3773,56,100,-0.152832031,0.164489746,0.977416992,3.671112061,-3.506622314,-1.315917969,1,1,1,1,1,30,sad
46:52.4,0.32149872,-0.2845593,0.15368183,0.020173663,0.024421783,0.131938,-0.36159968,0.22451791,0.8213076,0.45502055,-0.18245618,1.013107,0.96521854,1.1033709,0.8860343,1.134375,1.1638659,1.0312178,1.1847546,1.0492669,825.6044,838.49817,808.2784,832.8571,830.84247,36,100,-0.145812988,0.164855957,0.97253418,2.729034424,-3.970184326,-1.054229736,1,2,1,1,2,30,sad
46:53.4,0.32149872,-0.2845593,0.15368183,0.25153506,0.024421783,0.131938,-0.36159968,0.06204864,0.8213076,0.45502055,-0.18245618,0.6858929,0.96521854,1.1033709,0.8860343,0.88752365,1.1638659,1.0312178,1.1847546,0.9703055,799.011,824.7985,830.84247,811.0989,806.26373,15.999995,100,-0.146179199,0.167236328,0.973510742,3.409423828,-4.142150879,-1.450500488,1,1,1,1,1,30,sad
46:54.4,0.85354656,1.1092268,0.8089715,0.33610412,0.5808436,0.88584346,0.5186868,0.025022762,1.1145872,0.7945981,0.65632147,0.7100394,0.81831807,0.7669108,0.61135834,0.87525153,1.0123675,0.5258138,0.6134781,0.832947,827.2161,796.99634,799.81683,808.68134,628.97437,0,100,-0.151428223,0.166015625,0.974365234,4.142150879,-3.977661133,-2.145843506,1,1,1,1,1,30,sad
46:55.4,0.7670933,1.1506001,0.8242015,0.52220684,0.52059084,0.8927346,0.29092607,-0.08504622,0.7035161,0.7929447,0.44700038,0.8100008,0.79244894,0.7613274,0.6554654,0.8026793,1.0151073,0.4965959,0.61757445,0.72647995,766.3736,821.5751,820.7692,776.04395,764.35895,0,100,-0.148132324,0.164733887,0.970703125,4.089813232,-3.843078613,-1.966400146,1,1,1,1,1,30,sad
46:56.4,0.8497081,1.1506001,0.82638204,0.4226523,0.60901093,0.8927346,-0.096015155,0.13322125,0.7736864,0.7929447,0.21703593,0.95936763,0.86480075,0.7613274,0.39287147,0.800522,0.9471122,0.4965959,0.315417,0.7070272,737.3626,796.1905,818.3516,725.2747,822.381,0,100,-0.145446777,0.16796875,0.972229004,2.98324585,-3.177642822,-1.203765869,1,1,1,1,1,30,sad
46:57.5,1.0637754,1.1506001,0.82035875,0.06671877,0.42464295,0.8927346,0.24483305,0.3119413,0.57925826,0.7929447,0.7441249,0.86489654,0.9150889,0.7613274,0.6907022,0.9045368,0.8485663,0.4965959,0.49465135,0.81010514,790.9524,818.3516,811.0989,800.2198,843.3333,0,100,-0.154602051,0.168334961,0.968933105,3.401947021,-3.656158447,-0.949554443,1,1,1,1,1,30,sad
46:58.5,0.8646786,1.1506001,0.82035875,0.90989435,0.74699724,0.8927346,0.24483305,0.81067705,0.68066835,0.7929447,0.7441249,0.6577568,0.76217,0.7613274,0.6907022,0.66995454,0.33484587,0.4965959,0.49465135,0.3423325,777.25275,815.5311,796.99634,786.9231,926.337,0,98,-0.157287598,0.166687012,0.975158691,3.626251221,-2.452392578,-0.620574951,1,1,1,1,1,30,sad
46:59.5,0.91223305,0.41402918,0.30761188,0.8071776,0.6256824,0.2741233,0.16603543,0.6142175,0.804233,0.32586157,0.4987602,0.8418224,0.5947766,0.3603495,0.38935143,0.66912067,0.46882495,0.23435454,0.25956532,0.58526903,776.8498,798.60803,788.1319,762.3443,915.4579,0,100,-0.154968262,0.17010498,0.976379395,3.89541626,-3.289794922,-1.532745361,1,1,1,1,1,30,sad
47:00.5,1.2304952,0.07114042,-0.23508005,0.43708515,0.49485624,-0.19578537,0.066425614,0.6347078,0.9158924,0.19783962,0.084790654,0.9661918,0.7542847,0.54255706,0.32965747,0.73109615,0.41225165,0.13900556,0.17910565,0.5150286,792.5641,807.0696,801.02563,824.7985,881.2088,0,100,-0.171020508,0.16973877,0.967224121,3.289794922,-3.386993408,-1.921539307,1,1,1,1,1,30,sad
47:01.5,1.0329076,0.05851724,0.37247992,0.4365256,0.62009203,-0.23945701,0.16164114,0.6819627,1.0346838,8.14E-04,0.44195133,1.2468606,0.6142961,0.2443934,0.34461418,0.63545567,0.3116343,0.09531807,0.23730706,0.42016912,795.78754,811.9048,790.9524,807.47253,967.4359,13.999998,82.000015,-0.166137695,0.181030273,0.971862793,4.501037598,-3.259887695,-0.732727051,1,1,1,1,1,30,sad
47:02.5,0.5638241,-0.11856371,0.45557544,0.36714137,0.7264473,-0.16135934,0.064136416,0.36268148,1.3462888,0.33897427,0.47731134,1.3287759,0.6409451,0.26349166,0.24548203,0.45564738,0.18875007,-0.06677843,0.14398402,0.25306568,814.7253,803.44324,793.36993,775.64105,887.6557,34,62.00004,-0.164855957,0.184875488,0.971435547,3.484191895,-4.463653564,-1.233673096,1,1,1,1,1,30,sad
47:03.6,0.42597163,-0.19907016,0.54650223,0.16317779,0.48994815,-0.43520722,-0.10120724,0.23795807,0.9924085,0.26112208,0.37448922,0.81818897,0.60157305,0.35067028,0.35837325,0.52522594,0.2188158,0.0568196,0.11460841,0.3486336,790.14655,798.20514,799.81683,813.1135,797.8022,54.000004,44.000046,-0.178405762,0.184204102,0.960205078,2.968292236,-3.282318115,-1.420593262,1,1,1,1,1,30,sad
47:04.6,0.33845583,-0.05069067,0.7325887,0.037853505,0.12736237,-0.26685897,0.13225776,0.065558895,0.6847397,0.35443646,0.25330672,0.75908905,0.5631851,0.3733436,0.52401966,0.5576165,0.26125878,0.046893768,0.1771599,0.3977239,804.65204,798.60803,801.4286,790.9524,749.0476,54.000004,64.00003,-0.168884277,0.185058594,0.967041016,3.282318115,-4.351501465,-1.487884521,1,1,1,1,1,30,sad
47:05.6,0.3167402,-0.2379754,0.19612838,0.35762963,0.23980466,-0.467462,-0.24215204,0.1030157,0.44734958,0.3356244,0.023291454,0.5508855,0.44281065,0.2885944,0.2102684,0.4823001,0.13807777,-0.008083593,0.07739881,0.44065142,812.3077,811.50183,815.9341,830.4396,963.00366,44.000004,84.000015,-0.171508789,0.183532715,0.973327637,3.334655762,-3.85055542,-1.136474609,1,1,1,1,1,30,sad
47:06.6,0.6205591,-0.37728837,0.5450961,0.48305008,0.21750136,-0.30407295,0.014514756,0.11109029,0.66674286,0.14409482,0.37133285,0.60799366,0.57636976,0.2617498,0.30450702,0.42435294,0.2753977,-0.077296175,0.09763396,0.32065308,786.52014,810.696,791.75824,789.7436,751.4652,23.999994,100,-0.16607666,0.188781738,0.969970703,3.73840332,-3.237457275,-0.785064697,1,1,1,1,1,30,sad
47:07.6,0.38413075,-0.025252724,0.114794165,0.30893263,0.12201698,0.19045882,0.079493545,0.41329905,1.0565717,-0.13854589,0.5621619,1.4517906,0.6382325,0.31896073,0.26079795,0.36412975,0.1438928,0.09116609,0.114416316,0.33271074,806.6667,812.71063,815.12823,796.99634,636.63007,33.999996,88.000015,-0.157653809,0.186279297,0.967346191,3.229980469,-5.921630859,-1.600036621,1,1,1,1,1,30,sad
47:08.6,-6.40E-04,0.02994113,-0.29290518,-0.18310055,0.26724985,-0.20853037,-0.19714347,0.35278687,1.0122174,0.166245,0.43711486,1.4600478,0.45080486,0.34163603,0.21639434,0.4012537,0.27884492,0.17320946,0.15329516,0.28640017,794.9817,802.23444,799.011,818.3516,741.79486,54.000004,68.00003,-0.173217773,0.181762695,0.96862793,2.766418457,-4.560852051,-1.682281494,1,1,1,1,1,30,sad
47:09.6,-0.2657776,-0.32479858,-0.46757203,-0.06453633,0.3519318,-0.36851344,-0.5890854,0.09097292,0.6177935,0.11052388,0.07649543,0.77102983,0.5691774,0.36218503,0.20117824,0.4163484,0.26685697,0.16448043,0.18155389,0.28300953,802.6374,798.20514,804.2491,789.34064,955.34796,73.999985,76.00002,-0.159057617,0.180175781,0.971252441,2.609405518,-4.276733398,-0.493469238,1,1,1,1,1,30,sad
47:10.7,0.77740395,-0.2818549,-0.35821992,0.6005816,0.44002932,-0.47363403,-0.22707362,0.65099347,1.2187066,-0.1345976,0.2672332,1.3875903,0.6544644,0.3512125,0.42882994,0.8087837,0.43007195,0.13168713,0.391194,0.6636298,788.93774,800.2198,806.26373,819.15753,885.64105,93.99996,82.000015,-0.158935547,0.174926758,0.970825195,3.775787354,-1.644897461,-1.151428223,1,1,1,1,1,30,sad
47:11.7,1.1435505,0.078565694,-0.31200945,0.63252956,0.5374806,-0.03657755,-0.1518247,0.9270741,1.2303215,0.13039258,0.526986,1.6213696,0.69923383,0.18182601,0.4960922,0.80033207,0.3618179,0.09365807,0.35393754,0.66653275,788.93774,808.2784,796.99634,805.8608,716.4103,100,62.00004,-0.17578125,0.178649902,0.969970703,4.112243652,-3.708496094,-1.562652588,1,1,1,1,1,30,sad
47:12.7,0.8127065,0.30920234,0.22681502,0.48802152,0.7282815,0.26120368,0.05661915,0.41717243,0.7300386,0.34913048,0.23818725,1.2736746,0.5941158,0.3044243,0.3143732,0.52353275,0.12920919,-0.029910477,0.11241736,0.32536983,813.1135,807.0696,805.4579,836.08057,901.3553,100,42.000042,-0.182189941,0.180664063,0.964233398,3.282318115,-4.523468018,-0.814971924,1,1,1,1,1,30,sad
47:13.7,0.6261636,0.71644795,0.2858594,0.9945791,0.873082,0.3514108,0.001029704,0.60153085,0.18175097,0.1293778,0.4314538,1.2055724,0.5935475,0.123522714,0.267878,0.5603523,0.36755782,-0.1398855,0.09169269,0.30903718,811.50183,798.60803,800.2198,803.44324,791.75824,94.00001,22.000036,-0.179199219,0.180114746,0.968688965,4.104766846,-3.573913574,-2.631835938,1,1,1,1,1,30,sad
47:14.7,0.48363158,0.7515638,0.012909679,0.34979352,0.6847348,0.07205003,-0.4508814,0.54180795,0.5347277,0.42873096,0.085663915,1.0163128,0.35043174,0.18913242,0.20097737,0.6492132,0.23025358,0.09426882,-0.03711627,0.30351502,782.49084,783.2967,794.9817,802.23444,704.7253,78.00002,8.000038,-0.18157959,0.172668457,0.967102051,3.416900635,-4.074859619,-2.0262146,1,1,1,1,1,30,sad
47:15.8,0.84312856,0.44230378,0.11913181,0.15205424,0.67522275,0.11237553,-0.40191746,0.40834185,1.0950902,0.44145158,0.16661143,1.0559387,0.49839312,0.11506565,0.20269829,0.5688209,0.28237438,0.007183802,-0.05122435,0.36406857,795.38464,796.5934,805.05493,814.3223,925.9341,98,2.0000386,-0.172424316,0.177612305,0.96887207,3.588867188,-4.486083984,-1.203765869,1,1,1,1,1,30,sad
47:16.8,0.94631207,0.10792347,0.16403885,0.17345905,0.5139831,0.04036872,-0.13944593,0.37117907,1.1645515,0.2907022,0.25067076,1.1403548,0.58886653,0.18342797,0.24811654,0.5751179,0.29434082,0.03622905,0.07682081,0.33906648,833.663,766.77655,776.8498,802.6374,847.3626,100,0,-0.176391602,0.169067383,0.97088623,3.521575928,-4.65057373,-2.235565186,1,1,1,1,1,30,sad
47:17.9,0.8773211,-0.012373208,0.7664367,0.7715844,0.39112136,-0.23453091,-0.11332023,0.58305013,1.1798918,-0.25846973,-0.08918653,1.1118755,0.66903836,0.10718043,0.2529329,0.62349695,0.21498264,0.18673941,0.25095665,0.34916934,858.6447,813.1135,811.50183,835.6777,665.64105,100,0,-0.177490234,0.174926758,0.967834473,3.828125,-4.052429199,-1.95892334,1,1,1,1,1,30,sad
47:18.9,1.0283813,0.47224504,0.840305,0.7946883,0.17321476,0.007853336,0.08796124,0.58111566,0.8260847,0.13385022,0.31243095,0.6279203,0.6679829,0.28885603,0.25929466,0.5133719,0.105496936,0.21145472,0.13321824,0.26887536,810.696,822.7839,823.1868,826.8132,702.3077,92.00001,0,-0.168273926,0.174804688,0.969909668,3.611297607,-4.201965332,-1.487884521,1,1,1,1,1,30,sad
47:19.9,0.15466647,-0.029577825,0.031086763,0.5910613,0.07748332,-0.32480818,-0.084539,0.27297372,0.1983689,0.09141876,0.43918198,0.84828633,0.5254925,0.2635141,0.2602331,0.58032566,0.2997746,0.07051857,-0.058158908,0.27025467,794.57874,813.5165,795.38464,791.3553,773.6264,80.000015,6,-0.166137695,0.182067871,0.972229004,3.701019287,-4.815063477,-2.527160645,1,1,1,1,1,30,sad
47:20.9,0.14493512,0.2733193,-0.17178255,0.613544,0.08140564,-0.23721609,-0.08354095,0.28387156,0.5583785,0.002868277,0.37022582,0.92632365,0.4233259,0.27855375,0.31664833,0.60687304,0.24579227,0.097841315,-0.02110407,0.33880657,758.71796,801.4286,807.0696,783.69965,781.28204,76.00002,25.999996,-0.1640625,0.181396484,0.971435547,3.132781982,-4.067382813,-1.532745361,1,1,1,1,1,30,sad
47:21.9,0.37599406,0.29684034,-0.022666559,1.0217917,0.254912,-0.28089926,-0.15339524,0.981186,0.58994454,-0.010766973,0.04859473,1.0041401,0.4209787,0.2954416,0.15691534,0.4886391,0.23396648,-0.001426365,-0.042735003,0.433294,785.7143,800.2198,799.011,802.23444,924.3223,66.00003,38.000004,-0.164428711,0.174194336,0.972900391,3.798217773,-3.573913574,-1.772003174,1,1,1,1,1,30,sad
47:22.9,0.4290913,0.16332377,0.0782505,0.79103905,-0.098289184,-0.5336673,-0.29047078,0.6850658,0.68927604,-0.064290054,0.06418127,1.0078338,0.6093301,0.38690478,0.38797072,0.6313927,0.34406087,0.35123464,0.07844631,0.36880508,809.89014,789.34064,805.8608,827.2161,780.4762,52.000046,40.000004,-0.169616699,0.178833008,0.967468262,3.514099121,-4.710388184,-1.300964355,1,1,1,1,1,30,sad
47:24.0,0.96666837,0.6228985,0.37594274,1.3637625,0.74057466,0.1515965,0.14695776,1.1715301,0.72235584,0.14181283,0.51496786,0.9638064,0.6492992,0.3130032,0.33377942,0.6778998,0.3810751,0.39809164,0.13181637,0.29091287,799.011,813.91943,806.26373,819.9634,762.74725,46.000046,40,-0.162719727,0.177124023,0.971618652,3.768310547,-4.127197266,-2.422485352,1,1,1,1,1,30,sad
47:25.0,1.1178482,0.53895104,0.118207365,1.2765113,0.8396776,0.06949541,-0.058247086,1.0887874,0.76914155,-0.015789228,0.4688184,0.9818642,0.4159181,0.24128479,0.003340829,0.5948657,0.2359641,0.075869024,0.08668794,0.36822838,807.8755,805.8608,812.3077,787.326,717.619,26.000034,19.999994,-0.16998291,0.181762695,0.971862793,3.229980469,-3.753356934,-2.018737793,1,1,1,1,1,30,sad
47:26.0,0.5474597,-0.08791771,-0.3645899,0.23409073,0.110506,-0.26773882,-0.18093383,0.05560741,0.5720132,0.1556679,0.16665058,0.5758945,0.4282397,0.20231178,0.15034698,0.59978074,0.2254438,0.040900975,0.08055491,0.3554095,806.6667,801.8315,800.6227,824.3956,739.7802,6.0000386,36,-0.172180176,0.175842285,0.969116211,3.7159729,-3.259887695,-0.882263184,1,1,1,1,1,30,sad
47:27.0,0.5388658,0.23833326,0.4496995,0.8479434,0.12220609,-0.379488,-0.27811596,0.39863792,0.83295226,0.074489936,-0.004376458,0.8007339,0.49809968,0.16506754,0.25909522,0.5593506,0.29726416,0.16228914,0.3273031,0.41816545,826.4103,836.08057,842.9304,808.2784,615.6777,0,56,-0.168457031,0.170837402,0.973632813,3.372039795,-3.790740967,-1.764526367,1,1,1,1,1,30,sad
47:28.0,1.0388483,0.4719362,0.91082436,1.0473952,0.40357736,-0.5619113,-0.11722808,0.5735525,0.9999565,-0.06308677,-0.015907248,0.82016236,0.52057934,0.23465185,0.21995658,0.4581344,0.28500322,0.25981218,0.15634085,0.40557545,785.31134,826.4103,807.47253,798.20514,725.2747,0,44.000004,-0.165405273,0.173217773,0.97644043,3.00567627,-3.843078613,-1.973876953,1,1,1,1,1,30,sad
47:29.0,1.1613979,0.4829323,0.27922097,0.68506604,-0.017608164,-0.21247315,-0.026177257,0.48351723,0.50877774,0.4918003,0.29108697,0.5296348,0.5814254,0.6913434,0.46708545,0.54459965,0.27488592,0.33072093,0.28268695,0.6029189,786.52014,817.5458,800.6227,780.87915,890.87915,0,54.000004,-0.170837402,0.173461914,0.971801758,4.044952393,-3.446807861,-2.280426025,1,1,1,1,1,30,sad
47:30.0,0.31529993,0.50430137,0.26478258,0.60193115,0.61494493,-0.1592156,-0.097726524,0.2579286,0.9177839,0.46657318,0.27068448,0.33310682,0.39704716,0.65716827,0.5476884,0.67629117,0.082809925,0.3633445,0.19286187,0.7165639,804.65204,815.12823,797.3993,768.7912,733.3333,0,73.999985,-0.163452148,0.172485352,0.96887207,2.89352417,-5.121612549,-1.921539307,1,1,1,1,1,30,sad
47:31.1,0.41332993,0.06641371,-0.07475984,0.57996255,0.42704958,-0.3414192,-0.34682766,0.17760298,1.0614175,0.10129555,0.009937734,0.76830584,0.40834343,0.48328346,0.3025525,0.75209635,0.026119966,0.122253306,0.059089538,0.40955356,813.5165,811.50183,813.91943,808.68134,763.5531,15.999998,65.99999,-0.171936035,0.176452637,0.967102051,3.775787354,-3.663635254,-1.555175781,1,1,1,1,1,30,sad
47:32.1,0.27209175,0.050764248,-0.1711366,0.19564915,0.2782378,-0.20139399,-0.19509722,0.26805136,0.58076215,0.25732663,0.103441015,0.6596933,0.4512509,0.45463055,0.104567476,0.4949273,0.026830295,-0.017523974,0.02547386,0.283413,844.94507,886.4469,827.2161,832.4542,990.40295,32,56,-0.172241211,0.169555664,0.972839355,2.100982666,-4.396362305,-3.050537109,1,1,1,1,1,30,sad
47:33.1,0.23173401,0.16486265,0.41213867,0.006120318,0.4504254,0.007576013,-0.28961357,0.19345406,0.5523068,0.25732663,-0.029007992,0.40153834,0.550997,0.4011513,0.37867928,0.37154388,0.10845898,-0.10747642,0.0660749,0.24739903,784.90845,798.20514,787.326,781.28204,705.12823,15.999998,75.999985,-0.169799805,0.165283203,0.971740723,3.865509033,-3.409423828,-1.286010742,1,1,1,1,1,30,sad
47:34.1,0.23173401,0.16486265,0.3721103,1.508267,0.4504254,0.007576013,0.007807026,1.3813187,0.5523068,0.25732663,0.47731394,1.3818518,0.550997,0.4011513,0.44506386,0.7718635,0.10845898,-0.10747642,0.20521735,0.55193335,806.6667,796.5934,808.68134,794.17584,868.71796,0,87.99997,-0.173217773,0.178222656,0.967529297,3.73840332,-5.181427002,-1.809387207,1,1,1,1,1,30,sad
47:35.1,0.07906162,0.43433562,0.54815495,1.3012859,0.35152626,-0.020597491,0.29630384,1.1681858,0.60864764,0.28207147,0.5587372,1.392711,0.44257924,0.42952615,0.40439573,0.65365696,0.24247588,0.15360817,0.1922425,0.30480957,814.3223,813.1135,804.65204,811.0989,884.0293,0,67.99999,-0.171264648,0.181091309,0.969177246,4.187011719,-2.818756104,-1.465454102,1,1,1,1,1,30,sad
47:36.1,0.24383359,0.31409895,0.13301842,0.49796188,0.24267061,0.06511891,0.13476264,0.3144074,0.9036719,0.36256966,0.29189345,0.78743887,0.49178976,0.39530653,0.27510816,0.5551914,0.24674074,0.2536244,0.16858836,0.3188609,800.6227,816.337,817.1429,796.5934,770,13.999998,56,-0.184387207,0.169616699,0.965148926,3.267364502,-3.955230713,-1.450500488,1,1,1,1,1,30,sad
47:37.2,0.3244411,-0.14081109,-0.12480432,-0.15174004,0.17996751,-0.19517215,-0.15937012,-0.03531782,1.1060896,0.24771824,0.16740337,1.0698427,0.4274436,0.14934741,0.21162364,0.45711675,0.20200574,0.09687467,0.04585583,0.31196526,805.05493,804.2491,801.8315,813.5165,730.10986,34,67.99999,-0.173522949,0.169433594,0.965881348,3.342132568,-4.76272583,-1.592559814,1,1,1,1,1,30,sad
47:38.2,0.07980594,-0.034476046,-0.38804412,-0.19021578,0.003862484,-0.5469653,-0.5683384,-0.12766092,1.0928596,-0.0768743,-0.13298783,1.0563667,0.37134412,-0.0370561,0.18150719,0.4561894,0.2078699,0.14962943,-0.010026353,0.2036866,789.7436,798.20514,796.99634,806.26373,936.8132,54.000004,50.000008,-0.187683105,0.176940918,0.969848633,3.7159729,-4.284210205,-2.04864502,1,1,1,1,1,30,sad
47:39.2,0.83124655,0.09446574,-0.49831614,-0.017931513,0.2587831,-0.10303281,-0.30683756,-0.19598109,1.1430266,0.22852638,-0.027864637,0.9200857,0.5897809,0.18040892,0.021742178,0.49136624,0.21976891,-0.04084056,-0.15947796,0.30926833,801.8315,802.6374,796.99634,784.10254,734.5421,73.999985,40,-0.185180664,0.173461914,0.965515137,3.521575928,-4.269256592,-1.861724854,1,1,1,1,1,30,sad
47:40.2,0.8371149,0.055439387,-0.10542267,0.29824743,0.241498,0.07923439,0.006298707,0.09146306,0.7640633,0.3169043,0.34217715,0.94323856,0.5199269,0.35822958,0.0781299,0.61171305,0.04054331,0.0379507,-0.08526709,0.30219254,794.17584,800.6227,798.20514,813.1135,821.5751,93.99996,19.999994,-0.191650391,0.178894043,0.962463379,3.431854248,-2.998199463,-1.786956787,1,1,1,1,1,30,sad
47:41.2,0.023146767,0.24430677,0.028485943,0.25335628,0.054941863,0.050623983,0.1048122,0.37731287,0.6093993,0.20027089,0.49276522,0.70107335,0.45987582,0.35441846,0.12673707,0.5676892,0.012909457,-0.034802075,-0.08531051,0.24762782,801.8315,803.8461,801.02563,794.57874,864.2857,100,7.9999967,-0.179199219,0.176452637,0.968933105,3.125305176,-5.016937256,-1.644897461,1,1,1,1,1,30,sad
47:42.2,0.14133143,0.57251084,-0.08549553,0.4426671,-0.16158605,-0.0717688,-0.23448831,0.10538415,0.55978066,0.2632115,0.28701717,0.75433135,0.42663047,0.1399566,0.11526552,0.41389605,0.068877116,-0.0622523,-0.22296481,0.18968567,823.1868,769.59705,799.81683,835.2747,615.6777,100,25.999992,-0.188720703,0.177062988,0.968383789,3.394470215,-3.678588867,-1.884155273,1,1,1,1,1,30,sad
47:43.3,0.58182275,1.1036828,-0.10221802,0.6559584,0.06656138,-0.12238812,-0.46757263,0.03076668,0.71604216,0.34971473,0.1945101,0.68122023,0.4710766,0.19818407,0.12501942,0.39173108,0.06347373,-0.012871123,-0.30447727,0.13475834,802.23444,805.4579,796.5934,803.0403,707.1429,100,13.999995,-0.182250977,0.177001953,0.968994141,2.878570557,-3.663635254,-1.921539307,1,1,1,1,1,30,sad
47:44.3,0.36444828,0.931384,-0.123530656,0.47618553,0.05966226,0.44629195,-0.2891289,0.15601172,0.6562223,0.409768,0.23490176,0.41753042,0.5248677,0.29530773,0.1661702,0.35263452,0.07958737,-0.07646968,0.011342414,0.2523582,773.22345,819.15753,799.81683,787.326,765.9707,86.000015,19.999994,-0.18536377,0.180358887,0.965332031,4.127197266,-3.775787354,-1.502838135,1,1,1,1,1,30,sad
41:03.5,-0.06401772,0.15340666,0.22895713,0.20685962,0.26420778,-0.045404065,-0.35782534,0.30829266,0.3947795,-0.12507439,0.10470212,0.45413905,0.38200387,-0.1951031,-0.12014331,0.50787985,0.65477365,-0.6210242,-0.23162206,0.75135756,799.011,832.0513,794.57874,784.10254,587.47253,0,56,-0.06829834,0.037658691,0.999328613,0.628051758,-7.162780762,-4.859924316,1,1,1,1,1,35,happy
41:04.5,0.31430367,0.17203298,0.55611694,0.31064785,0.4605973,-0.045460653,-0.2801138,0.27587664,0.66610605,-0.12507439,0.2881017,0.503416,0.45760313,-0.19715738,-0.09534401,0.7427477,0.76465863,-0.64303833,-0.2331277,0.81744206,795.78754,916.26373,795.78754,832.8571,837.6923,0,77.99998,-0.137512207,-0.005859375,0.993591309,5.659942627,-0.687866211,10.53482056,1,1,1,1,1,35,happy
41:05.5,0.37823397,0.17203298,0.6383967,0.5123936,0.5886736,-0.045460653,-0.10874322,-0.05813537,0.62554497,-0.12507439,-0.043581337,0.5307796,0.48424402,-0.19715738,-0.05559617,0.7076951,0.7270235,-0.64303833,-0.0842062,0.7410528,808.68134,797.8022,786.9231,821.5751,657.5824,0,97.99996,-0.07598877,-0.025695801,0.997436523,-2.243041992,1.413116455,-13.91433716,1,1,1,1,1,35,happy
41:06.6,0.32199153,0.17203298,0.93847084,0.4878577,0.39793804,-0.045460653,0.2386148,0.20783451,0.74210304,-0.12507439,0.21722688,0.5604888,0.622199,-0.19715738,0.0527868,0.5335289,0.53672147,-0.64303833,-0.020543167,0.7724784,798.20514,796.5934,796.99634,797.3993,784.10254,0,100,-0.105895996,-0.022399902,0.99395752,3.095397949,-1.540222168,-8.000183105,1,1,1,1,1,35,happy
41:07.6,0.13469169,0.12009901,0.40635833,0.06543183,0.4206457,-0.3531161,0.047966294,0.33154896,0.7767045,-0.18849085,0.18138552,0.7818972,0.5740683,0.12788434,0.041896876,0.6845501,0.6184979,-0.2080437,-0.111221105,0.8713561,796.5934,805.05493,798.20514,815.5311,689.011,0,100,-0.110229492,0.078674316,1.006469727,9.017028809,0.897216797,9.383392334,1,1,1,1,1,35,happy
41:08.6,0.006758258,0.18817794,-0.43288097,0.038182117,0.16925225,-0.14723797,-0.32590452,0.22275943,0.46006832,-0.00277591,0.007737739,0.6292127,0.57719624,0.027765196,-0.005748542,0.8587155,0.58121806,-0.18247151,-0.24386348,0.9051764,798.60803,794.17584,803.8461,817.9487,788.93774,0,100,-0.114685059,0.035766602,0.990234375,3.065490723,0.396270752,-2.968292236,1,1,1,1,1,35,happy
41:09.6,-0.024020342,0.37982255,0.021856725,0.19033393,0.07694047,-6.53E-04,-0.06875354,0.04784668,0.38688698,0.3304846,-0.040492218,0.40613055,0.6058544,-0.15230443,-0.061413787,0.884971,0.67690045,-0.1597207,-0.17079848,0.8845071,786.9231,795.38464,797.8022,778.86444,770,0,100,-0.117248535,0.032043457,0.987792969,3.072967529,-5.091705322,-2.340240479,1,1,1,1,1,35,happy
41:10.6,0.13750519,0.44498143,0.13346486,0.0937888,0.18248409,0.15798452,0.007749213,0.20383592,0.18383956,0.2800716,0.08620035,0.32948786,0.48337865,-0.0412589,0.002207449,0.6050982,0.634103,-0.14413098,-0.05943524,0.8002536,823.9927,804.2491,801.4286,812.3077,783.69965,0,100,-0.116516113,0.044921875,0.990112305,5.338439941,-5.600128174,-1.517791748,1,1,1,1,1,35,happy
41:11.6,0.1146677,0.5503404,-0.15074779,-0.12160198,0.029711803,0.110494316,-0.1979234,0.24348935,0.31439152,0.4087592,0.11360863,0.42001292,0.38260403,0.09924442,-0.07021011,0.6418615,0.67519397,-0.2537976,-0.009359418,0.8897122,806.26373,794.9817,800.2198,768.3883,671.685,0,100,-0.122802734,0.048339844,0.991333008,3.125305176,-2.721557617,-2.265472412,1,1,1,1,1,35,happy
41:12.7,0.19404523,0.7864139,-0.52002245,0.21305174,0.48918197,0.22980416,-0.4775979,0.33317676,0.82503384,0.4575646,-0.10992184,0.69352484,0.45261645,-0.021570735,-0.106441736,0.7521225,0.7337036,-0.36737,-0.0814473,0.6971821,802.23444,811.9048,793.36993,780.4762,758.315,0,100,-0.118591309,0.035400391,0.998596191,3.476715088,-5.188903809,-2.310333252,1,1,1,1,1,35,happy
41:13.7,0.270632,0.38430864,-0.20284115,0.064714536,0.7202088,0.06213953,-0.1250521,0.29205173,1.0609486,0.26820287,0.1839598,0.7188413,0.5797404,-0.07329403,-0.08933866,0.71535784,0.6587456,-0.3078867,-0.11108996,0.55315584,789.34064,778.86444,805.8608,817.5458,954.94507,0,100,-0.108154297,0.028320313,0.998168945,4.000091553,-4.306640625,0.246734619,1,1,1,1,1,35,happy
41:14.7,0.14995039,1.0292807,-0.5914894,0.006041612,0.39718306,0.7083255,-0.31930438,0.16944599,0.8998142,0.87306565,0.02984849,0.42833504,0.4637804,0.27621067,-0.13012618,0.68394876,0.65258634,-0.26662183,-0.1084566,0.53816026,804.65204,782.8938,802.23444,806.6667,841.31866,0,100,-0.115234375,0.027893066,0.993713379,3.431854248,-2.863616943,-2.287902832,1,1,1,1,1,35,happy
41:15.7,-0.04286863,1.1884435,-0.43107352,-0.52622867,0.10235427,0.96403706,-0.382673,0.08700505,0.48047978,0.87306565,-0.24073163,0.32679948,0.3747388,0.42368445,-0.2411201,0.65027106,0.62312734,-0.14683126,-0.031443108,0.5451566,801.4286,703.5165,796.99634,809.4872,734.5421,0,100,-0.112792969,0.034179688,0.992919922,4.112243652,-3.790740967,-1.218719482,1,1,1,1,1,35,happy
41:16.8,0.27178437,0.50271565,-0.492749,-0.29448774,0.05381801,0.013281981,-0.40763152,-0.1663681,0.35525805,0.024452388,-0.1268447,0.19388814,0.63929945,-0.050321687,0.021478508,0.7389554,0.60896444,-0.21980669,-0.08117918,0.71805733,815.9341,780.4762,787.326,769.19415,758.315,0,100,-0.122680664,0.028930664,0.99432373,3.117828369,-3.648681641,-1.89163208,1,1,1,1,1,35,happy
41:17.8,0.3745878,0.50271565,-0.5022457,-0.06341064,0.25288272,0.013281981,-0.37263265,0.28992125,0.5023323,0.024452388,0.37673336,0.71660584,0.5932919,-0.050321687,0.04314542,0.722716,0.53350085,-0.21980669,-0.07284428,0.76596093,805.05493,856.63007,799.41394,799.81683,629.7802,0,100,-0.143127441,0.035827637,0.986999512,4.628143311,-1.383209229,-3.730926514,1,1,1,1,1,35,happy
41:18.8,0.40326878,0.50271565,-0.26316082,0.21493654,0.36961898,0.013281981,-0.44577882,0.3405418,0.44049639,0.024452388,0.35940278,0.7630766,0.6043228,-0.050321687,-0.02317378,0.7210077,0.58742535,-0.21980669,0.08066632,0.85132706,788.93774,786.9231,782.49084,775.64105,735.34796,0,100,-0.160522461,0.028991699,0.991638184,3.91784668,-5.084228516,-2.886047363,1,1,1,1,1,35,happy
41:19.8,0.2494274,0.50271565,0.48999298,0.42790803,0.034389302,0.013281981,-0.34433058,0.052953098,0.13695839,0.024452388,0.018656382,0.49417156,0.7027475,-0.050321687,-0.011110328,0.7714882,0.69781095,-0.21980669,-0.0421775,0.9591792,826.4103,808.68134,804.2491,811.50183,751.8681,0,100,-0.122009277,0.024780273,0.986999512,3.633728027,-4.725341797,-2.586975098,1,1,1,1,1,35,happy
41:20.8,-0.05057906,0.39943105,0.6560315,0.19595943,-0.26594633,-0.15797107,0.020319479,-0.31360087,0.12382802,0.00948918,0.33061114,0.52928066,0.6072417,0.029206336,0.004324086,0.63262284,0.7248875,-0.2376648,-0.1886091,0.8537197,808.2784,784.5055,790.54944,799.011,821.5751,0,100,-0.110046387,0.027038574,0.996582031,3.289794922,-4.635620117,-2.153320313,1,1,1,1,1,35,happy
41:21.8,0.060528744,0.572039,0.41582784,0.18228748,-0.1883522,0.15701927,0.068265826,0.09865735,0.30725202,0.043107364,0.28285387,0.64265,0.54851085,0.17584372,0.002358104,0.60548574,0.68816364,-0.08341043,-0.074112654,0.8657151,783.2967,808.68134,802.6374,784.10254,736.1539,0,100,-0.10333252,0.017700195,0.993286133,2.572021484,-3.865509033,-2.691650391,1,1,1,1,1,35,happy
41:22.9,-0.08758653,0.65137374,0.001460485,-0.12072105,0.27558315,0.00762457,-0.089234315,-0.011111391,0.43204764,0.028249616,0.11783098,0.49752206,0.6315582,-0.082737975,0.05730029,0.75277114,0.7307281,-0.088645436,-0.003997855,0.75320554,807.47253,784.10254,797.3993,808.2784,892.8938,0,100,-0.106872559,0.018920898,0.994140625,2.796325684,-4.912261963,-2.504730225,1,1,1,1,1,35,happy
41:23.9,-0.055045497,0.79555327,0.24119924,-0.34284112,0.4036475,0.109483905,0.078101,0.15366529,0.7469598,0.004121921,0.42280513,0.60903263,0.5266951,-0.23581003,0.14773965,0.68322617,0.7289029,-0.03854135,-0.09421242,0.79043996,783.2967,794.57874,808.68134,786.1172,743.8095,0,100,-0.110717773,-0.002075195,0.99621582,3.753356934,-4.306640625,-1.00189209,1,1,1,1,1,35,happy
41:24.9,0.06266743,-0.06944242,0.19510536,0.032877695,0.21528342,-0.01823163,-0.022246312,0.30144638,0.7731448,0.20643878,0.41519544,0.7314983,0.47857636,0.05398206,0.12773438,0.67736155,0.6804673,-0.124415286,-0.03868361,0.7464965,800.2198,779.2674,816.337,816.337,934.3956,0,100,-0.112854004,-0.004394531,0.992675781,3.446807861,-4.478607178,-1.93649292,1,1,1,1,1,35,happy
41:25.9,0.04053841,0.1717284,-0.15952724,0.07208775,0.003213234,-0.12854585,-0.13569845,0.23351754,0.54323286,0.20818213,0.20832948,0.8806593,0.440055,-0.014601524,0.03814563,0.70524526,0.61036974,-0.15747274,0.006465588,0.67172533,794.17584,795.78754,794.57874,805.8608,792.1612,0,100,-0.110351563,0.001403809,0.994628906,3.274841309,-1.465454102,-1.77947998,1,1,1,1,1,35,happy
41:26.9,-0.018932192,0.06632913,-0.080193,-0.015156715,0.21232715,-0.17103526,-0.01659587,0.35872415,0.5041051,0.14082615,0.24967538,0.9009715,0.48891404,-0.21801384,0.03331964,0.859705,0.5976137,-0.16869631,-0.16956797,0.64462125,809.4872,795.78754,798.20514,808.68134,782.8938,0,100,-0.121582031,0.004516602,0.991333008,3.730926514,-3.581390381,-1.585083008,1,1,1,1,1,35,happy
41:28.0,-0.11847751,0.31972823,0.21021807,-0.10861236,0.30762404,-0.15460077,0.17101413,0.2693969,0.35065076,0.1848611,0.2121609,0.7040094,0.6754428,-0.08773996,-0.06895819,0.816486,0.5497408,-0.34763175,-0.1358674,0.67081416,811.9048,803.8461,801.8315,802.6374,630.58606,0,100,-0.122924805,0.007751465,0.993469238,3.192596436,-4.097290039,-1.742095947,1,1,1,1,1,35,happy
41:36.1,0.006865197,0.79489934,0.072676525,0.07739588,0.1337633,0.2737064,0.1213069,0.34922728,0.69853777,0.34372553,0.09388737,0.5023104,0.68768585,-0.12923402,-0.009096102,0.618328,0.46156752,-0.18508798,-0.17952646,0.51241106,794.9817,799.41394,802.23444,802.23444,996.8498,0,100,-0.106506348,0.02154541,0.99407959,3.932800293,-3.080444336,-0.328979492,1,1,1,1,1,30,happy
41:37.1,0.29297006,0.8726165,-0.33224523,0.31517366,0.2638289,0.10378874,-0.27369624,0.30153918,0.3475925,0.25768057,0.18755944,0.59441525,0.47475976,-0.199994,-0.08465441,0.67225677,0.57653475,-0.10197626,-0.030784773,0.6031644,787.326,800.6227,803.44324,793.7729,817.1429,0,100,-0.127502441,0.006652832,0.998901367,2.601928711,-7.529144287,-0.620574951,1,1,1,1,1,30,happy
41:38.2,0.5349113,0.71641344,0.37277004,0.7099014,0.32504392,0.4242244,0.008075584,0.6696398,0.30745876,0.23634483,0.40082714,0.82582504,0.34850308,0.17031077,-0.09274266,0.82011545,0.75603616,-0.18310566,3.49E-04,0.70669043,805.8608,792.5641,803.8461,870.32965,965.82416,0,100,-0.094726563,0.008239746,0.992248535,3.140258789,-3.386993408,-2.145843506,1,1,1,1,1,30,happy
41:39.2,0.740077,1.0197773,0.58163965,0.72969466,0.14261098,0.62920356,0.24159424,0.50073946,0.5067908,0.3770714,0.36495778,0.7031353,0.46344477,0.21969526,-0.09825763,0.87277836,0.61342716,-0.13640684,0.06923616,0.71775633,792.5641,778.86444,799.41394,806.6667,585.05493,0,100,-0.082946777,0.015808105,0.995483398,3.790740967,-4.426269531,-1.158905029,1,1,1,1,1,30,happy
41:40.2,0.46209788,0.7180536,0.309599,0.23483561,0.08221226,0.45351255,0.31272835,0.07852329,0.57519245,0.34841505,0.466029,0.6362547,0.48004863,-0.12999684,0.16275169,0.83208144,0.56395084,-0.20444144,-0.09816851,0.75927156,790.9524,782.49084,802.23444,804.2491,776.4469,0,100,-0.088378906,0.018249512,0.99609375,3.544006348,-3.91784668,-1.525268555,1,1,1,1,1,30,happy
41:41.2,0.25406972,0.68420994,0.20998172,0.2994551,0.1840087,0.16525318,0.15974888,0.2547438,0.5532303,0.34020597,0.21114369,0.6430409,0.43326715,-0.041516572,0.25766498,0.82194555,0.5597481,-0.015812384,0.16415277,0.7814622,791.3553,795.38464,800.2198,822.381,1000.4762,0,100,-0.098632813,0.019226074,0.994384766,3.932800293,-3.416900635,-0.127105713,1,1,1,1,1,30,happy
41:42.2,0.75052285,0.5491871,-0.39360943,0.9821172,0.522616,-0.1288267,-0.24999793,0.7168157,0.51357913,0.21896273,-0.1923719,0.548309,0.47780937,-0.06924975,0.13806036,0.7147573,0.4495989,-0.14378007,-0.107393116,0.53590083,795.78754,796.5934,797.8022,786.52014,828.8278,0,100,-0.102294922,0.016906738,0.990844727,3.745880127,-3.312225342,-1.435546875,1,1,1,1,1,30,happy
41:43.3,0.2530772,0.9680973,-0.59542423,0.37433842,0.24059413,0.3421611,-0.46623176,0.11316364,0.61321837,0.31811315,-0.11785898,0.7478287,0.56145436,-0.0441665,-0.09065425,0.41012615,0.340498,-0.34709173,-0.47207886,0.400856,800.6227,797.8022,801.02563,807.47253,711.5751,0,100,-0.104064941,0.017272949,0.995300293,3.701019287,-4.680480957,-1.338348389,1,1,1,1,1,30,happy
41:44.3,0.44695726,1.1917073,-0.5684094,0.4997506,0.34301096,0.64041835,-0.54712415,0.21651056,0.7534631,0.86929274,0.26284227,0.94362354,0.6064043,0.098871805,-0.22158192,0.49915248,0.24122638,-0.24962068,-0.35946092,0.36760065,798.20514,793.36993,801.8315,792.1612,694.2491,19.999998,100,-0.105102539,0.014770508,0.997070313,3.835601807,-4.329071045,-1.263580322,1,1,1,1,1,30,happy
41:45.3,0.016010871,1.4443552,-0.14994429,0.13389808,0.17999968,0.75005436,-0.37529776,-0.31802225,0.49482012,0.8724272,0.11531669,0.21159458,0.5090902,0.14330007,-0.2601133,0.5815099,0.2876565,-0.16440757,-0.36424613,0.48568952,791.3553,909.81683,790.54944,798.20514,767.1795,27.999996,100,-0.111816406,0.02154541,1.000854492,2.459869385,-4.067382813,-0.179443359,1,1,1,1,1,30,happy
41:46.4,0.9791982,1.57237,0.55149937,0.53060097,0.57080704,0.67990446,-0.29261938,0.24987921,0.7221862,0.86524683,0.14372699,0.036928266,0.4227696,0.15330856,-0.10521888,0.5865844,0.72650504,-0.14395167,-0.2202036,0.83904713,823.9927,824.3956,811.0989,838.49817,637.03296,8,100,-0.116149902,-0.019775391,0.988830566,2.452392578,-0.411224365,-1.166381836,1,1,1,1,1,30,happy
41:47.4,0.52617973,1.57237,0.8443033,0.53060097,0.33346856,0.67990446,-0.3803223,0.24987921,0.522388,0.86524683,-0.12008126,0.036928266,0.5154441,0.15330856,0.050884854,0.5865844,0.65473914,-0.14395167,-0.11964691,0.83904713,797.3993,823.9927,766.3736,821.5751,703.91943,0,100,-0.065185547,-0.05255127,0.974731445,2.930908203,-1.614990234,-4.658050537,1,1,1,1,1,30,happy
41:48.4,0.75636315,1.57237,0.47362697,0.53060097,0.92249423,0.67990446,-0.039959732,0.24987921,1.1184726,0.86524683,0.14734916,0.036928266,0.3937917,0.15330856,0.019823369,0.5865844,0.9954723,-0.14395167,0.18503162,0.83904713,803.8461,830.0366,792.5641,826.0073,753.8828,0,100,-0.171569824,-0.032592773,0.996643066,4.134674072,-5.286102295,4.800109863,1,1,1,1,1,30,happy
41:49.4,0.75636315,1.2474445,0.45240548,0.7991423,0.92249423,0.8608709,-0.2557512,0.14548992,1.1184726,0.61183393,0.16334926,0.49594882,0.3937917,0.40287578,0.08566437,0.7318067,0.9954723,0.114834934,0.027341293,1.0356394,784.10254,796.5934,778.46155,813.1135,658.7912,0,100,-0.172119141,-0.094543457,0.988586426,-0.082244873,-0.575714111,-7.282409668,1,1,1,1,1,35,happy
41:50.4,0.75636315,1.1342757,0.4348188,0.6582246,0.92249423,0.77256024,-0.02345986,0.32375258,1.1184726,0.7582248,0.44588855,0.39748544,0.3937917,0.6597187,0.20369968,0.7202701,0.9954723,-0.053379666,-0.007225034,0.93801415,788.5348,790.9524,807.0696,796.1905,1064.5421,0,100,-0.167419434,-0.098388672,0.980773926,-0.179443359,-5.637512207,12.4937439,1,1,1,1,1,35,happy
41:51.4,0.75636315,0.6622236,0.24484871,0.51672494,0.92249423,0.46108302,-0.21228603,0.30887833,1.1184726,0.7527472,0.42141318,0.08893139,0.3937917,0.3813066,0.07132707,0.7444077,0.9954723,-0.18436979,-0.071793996,0.9484823,794.57874,794.17584,790.14655,761.9414,902.5641,0,100,-0.167297363,-0.110229492,0.983947754,3.865509033,-3.431854248,-9.846954346,1,1,1,1,1,35,happy
41:52.5,0.4532242,0.41363788,0.05728042,-0.03255438,0.3941668,0.013152888,-0.35672602,2.43E-04,0.68733776,0.30954137,0.23548877,0.73741424,0.8600321,0.031729937,0.24575344,0.7851649,0.7868097,-0.16341396,0.11989167,0.86406314,772.01465,800.2198,807.47253,805.8608,740.58606,0,100,-0.191955566,-0.10925293,0.981750488,3.312225342,-0.104675293,2.385101318,1,1,1,1,1,35,happy
41:53.5,0.5536626,0.545052,0.058293127,0.09667571,0.37464523,-0.22040324,-0.28914014,0.106871225,0.7311484,0.24947238,-0.004665272,0.49154297,0.71415085,0.02734521,0.19655688,0.7524665,0.82094795,-0.05569657,0.10950936,0.99399155,836.8865,783.2967,781.28204,788.5348,679.7436,0,100,-0.139587402,-0.143920898,0.984619141,0.680389404,-2.78137207,-2.975769043,1,1,1,1,1,35,happy
41:54.5,0.31185222,0.545052,0.37788597,0.44126508,0.25835043,-0.22040324,-0.38967845,0.07752809,0.5357086,0.24947238,0.031286974,0.5423209,0.6608187,0.02734521,-0.009759625,0.7712032,0.8540965,-0.05569657,0.00658139,0.9070832,815.12823,790.54944,799.81683,780.07324,801.4286,0,100,-0.133239746,-0.131835938,0.98046875,2.80380249,-3.977661133,-6.512298584,1,1,1,1,1,35,happy
41:55.5,0.6468609,0.8925398,0.3509633,0.44115803,0.22625841,0.45859987,-0.12310432,0.24732424,0.60377586,0.7344754,0.31999195,0.5617692,0.6589697,0.18780628,0.007920035,0.8269524,0.5540555,0.023078807,0.111592494,0.8511476,794.17584,761.53845,804.2491,799.81683,923.5165,0,100,-0.134094238,-0.149291992,0.981262207,0.919647217,-3.431854248,-2.527160645,1,1,1,1,1,35,happy
41:56.5,0.7026104,1.2328563,0.026345367,0.6945106,0.48879007,0.86724406,0.043609697,0.23737535,0.7108014,1.055464,0.09615881,0.77427894,0.5859832,0.60548997,0.046454474,0.6660285,0.44873855,0.14445026,0.014958316,0.8661146,757.50916,731.31866,818.7546,786.1172,731.7216,0,100,-0.100341797,-0.13873291,0.983947754,5.278625488,-4.568328857,-4.119720459,1,1,1,1,1,35,happy
41:57.6,0.54095286,1.2848674,0.17050058,0.8827873,0.5497155,0.96917385,0.14414883,0.56892425,0.54138565,1.055464,0.09189765,0.77392125,0.49469814,0.7050595,0.09384941,0.7690996,0.42160222,0.16117837,-0.16811195,0.5436243,800.6227,781.28204,801.02563,799.41394,914.65204,0,100,-0.102294922,-0.141479492,0.988708496,4.994506836,-4.007568359,0.029907227,1,1,1,1,1,35,happy
41:58.6,0.73761415,1.2848674,0.10887286,0.34071922,0.18456483,0.96917385,-0.07289871,0.36844635,0.5639678,1.055464,0.092392735,0.7732471,0.52749324,0.7050595,0.041651968,0.6146902,0.4791509,0.16117837,-0.2546585,0.6460991,797.3993,763.1502,800.2198,785.7143,630.58606,0,100,-0.121032715,-0.147521973,0.980957031,3.215026855,-3.484191895,-1.84677124,1,1,1,1,1,35,happy
41:59.6,0.501421,1.2848674,0.001667869,0.39158425,0.26012444,0.96917385,-0.13398747,0.5095978,0.46598485,1.055464,0.031943657,0.6788529,0.6701842,0.7050595,-0.07330534,0.5700002,0.2191465,0.16117837,-0.30184385,0.5748532,807.0696,797.3993,802.23444,810.293,974.2857,0,100,-0.124267578,-0.140258789,0.981750488,3.686065674,-3.701019287,-1.121520996,1,1,1,1,1,25,happy
42:00.7,0.60799664,0.14181535,-0.0541901,0.57147604,0.59816265,-0.26682916,-0.1820318,0.10173725,0.4718501,0.38655627,0.13223414,0.5193302,0.59622353,-0.032082606,0.050607987,0.37228277,0.102827966,-0.47443557,-0.56288236,0.19491181,783.69965,792.96704,808.68134,791.75824,957.76556,0,100,-0.131835938,-0.126220703,0.985839844,3.514099121,-4.598236084,-1.323394775,1,1,1,1,1,25,happy
42:01.7,0.62517154,0.1300881,0.029209752,-0.029651968,0.083462104,-0.6424378,-0.2944636,0.21665789,0.28569216,0.03302994,0.123886034,0.484251,0.55784523,-0.10069462,0.054285884,0.5743075,0.18057851,-0.6678377,-0.3739603,0.32001087,814.3223,803.8461,800.2198,815.12823,878.3883,0,100,-0.135803223,-0.128234863,0.983215332,2.773895264,-4.149627686,1.06918335,1,1,1,1,1,25,happy
42:02.7,0.4917703,0.15518826,0.11176762,1.0216135,0.24460198,0.14125317,-0.057158362,0.68697315,0.26413542,0.31159917,0.010673095,0.5713313,0.5072374,-0.1972808,0.009849454,0.6041516,0.3151556,-0.595251,-0.30231348,0.31492302,799.011,792.96704,804.2491,813.91943,953.73627,0,100,-0.131408691,-0.118774414,0.980224609,3.73840332,-3.9402771,-2.990722656,1,1,1,1,1,25,happy
42:03.7,-0.052298013,0.37508243,0.100246124,1.255221,0.16186893,0.17776774,0.08711642,0.9146874,0.088426046,0.3874293,0.05076272,0.5514422,0.49622628,-0.09226347,0.005756144,0.55824804,0.043376517,-0.4022946,-0.54815024,0.16502577,813.91943,792.5641,798.60803,803.0403,753.8828,0,94.00001,-0.131713867,-0.123046875,0.986206055,4.082336426,-3.244934082,0.373840332,1,1,1,1,1,25,happy
42:04.7,0.21456957,0.2744599,0.30639818,0.30217484,0.08382696,-0.31593135,-0.3138247,0.32277477,0.54543084,0.12980224,-0.043034833,0.768476,0.5571998,-0.13756095,-0.17615558,0.59540457,0.1686863,-0.54195696,-0.3387204,0.3588229,750.2564,766.3736,777.25275,824.7985,665.2381,0,90.00001,-0.135498047,-0.119934082,0.984802246,6.56463623,-6.377716064,6.983337402,1,1,1,1,1,25,happy
42:05.8,0.5376346,0.6665748,0.8430857,0.6918,-0.09651461,-0.28791204,-0.22997262,0.13500217,0.51383066,-0.14983654,-0.1425233,0.71823066,0.55235064,-0.19411284,-0.12919246,0.679601,0.33015206,-0.5993715,-0.038524143,0.8061114,811.50183,770.80585,793.7729,793.36993,692.6374,0,100,-0.116149902,-0.136657715,0.98260498,5.144042969,-5.473022461,-0.994415283,1,1,1,1,1,25,happy
42:06.8,0.5376346,1.0794762,0.4257766,0.9542067,-0.09651461,-0.02651196,-0.29421768,0.020589633,0.51383066,0.3272932,0.3183774,0.5479615,0.55235064,0.14898926,0.119806685,0.6419471,0.33015206,-0.4872858,-0.35009092,0.6562821,807.47253,767.5824,804.65204,822.381,761.9414,0,100,-0.108276367,-0.129943848,0.986572266,3.790740967,-3.147735596,-1.839294434,1,1,1,1,1,25,happy
42:07.8,0.519185,1.0015329,0.07587618,0.7335826,0.37581396,0.26374418,-0.5630871,-0.0245217,0.5219025,0.4794546,0.21290028,0.51918125,0.38616592,0.010332114,-0.03721172,0.5392328,0.31215405,-0.31359932,-0.45997843,0.34640846,799.81683,721.6484,809.89014,798.20514,612.4542,0,100,-0.10925293,-0.135742188,0.984130859,3.768310547,-4.336547852,-2.228088379,1,1,1,1,1,25,happy
42:08.8,0.2735253,1.0015329,-0.13464542,0.16998747,0.2367728,0.26374418,-0.35706094,0.19905531,0.52533823,0.4794546,0.19231796,0.5176445,0.51939565,0.010332114,-0.061836448,0.45618233,0.4309131,-0.31359932,-0.4055057,0.29125676,784.10254,790.14655,796.1905,801.02563,756.7033,0,100,-0.105224609,-0.134155273,0.987731934,3.334655762,-3.491668701,-2.138366699,1,1,1,1,1,25,happy
42:09.9,0.089644164,0.45949543,-0.3603815,0.22970934,0.24548666,0.3001318,-0.23404367,0.24671942,0.5343606,0.12289005,0.14193682,0.58287877,0.5837359,0.007437148,-0.04392401,0.52552533,0.3591438,-0.5184368,-0.33369538,0.4405039,797.3993,788.1319,800.2198,775.2381,774.83514,0,100,-0.114379883,-0.129821777,0.98425293,3.401947021,-3.648681641,-1.839294434,1,1,1,1,1,30,happy
42:10.9,-0.008315912,0.51897115,-0.3873677,0.1998461,0.33583987,0.35185418,-0.46586356,0.26865822,0.3739476,0.42781347,-0.025321167,0.6042416,0.5828644,0.15030126,-0.13455974,0.4872528,0.26762345,-0.320624,-0.25036296,0.30158255,808.68134,788.1319,795.78754,777.6557,786.52014,0,100,-0.108398438,-0.128479004,0.98614502,3.790740967,-3.947753906,-1.532745361,1,1,1,1,1,30,happy
42:11.9,-0.046135686,0.16284059,-0.5199491,-0.009225968,0.21307416,0.2968381,-0.1363841,0.20991324,0.472334,0.47115776,-0.041653417,0.34616,0.6075414,0.16119483,0.003893829,0.44272363,0.38239515,-0.21779586,-0.30191746,0.1805325,788.1319,793.36993,800.2198,811.50183,848.97437,0,100,-0.112548828,-0.130065918,0.984863281,3.85055542,-3.00567627,-1.256103516,1,1,1,1,1,30,happy
42:12.9,0.13198186,0.6730523,-0.43934527,0.08245186,0.117718816,0.23058254,-0.18679787,0.40446684,0.76778936,0.5996776,0.2203124,0.6210893,0.5232884,-0.003180324,-0.07395795,0.4406259,0.24981947,-0.38472876,-0.31180263,0.11780008,801.02563,792.1612,792.1612,791.3553,861.8681,2,100,-0.110656738,-0.131774902,0.982971191,2.968292236,-4.149627686,-2.527160645,1,1,1,1,1,30,happy
42:14.0,0.09920462,0.46352574,-0.05614333,0.3660077,-0.020733653,0.28314757,-0.3536257,0.3746492,0.7856535,0.5134296,0.3905392,0.6966111,0.50578034,-0.037606396,-0.16081049,0.5941145,0.26907483,-0.35573736,-0.40305242,0.008135989,801.02563,798.60803,801.02563,796.99634,767.1795,23.999996,100,-0.106384277,-0.126831055,0.989135742,3.372039795,-3.588867188,-1.420593262,1,1,1,1,1,30,happy
34:22.0,0.7567984,0.45683244,0.5968654,0.59284806,0.7186535,0.17831719,0.27813223,0.61808103,0.9709208,0.3756209,0.45421574,0.8992829,0.3618393,0.14858356,-0.023241011,0.528638,0.2936827,-0.4473563,-0.46023548,-0.032950606,789.34064,819.5604,786.9231,769.19415,906.1905,100,0,0.061096191,0.127868652,0.988891602,3.902893066,-5.405731201,-0.770111084,1,1,1,1,1,50,happy
34:23.0,0.46552953,1.1020938,0.19053361,1.0849025,0.408196,0.33125004,-0.20406647,0.50739694,1.20497,0.2804567,0.27803627,0.72118795,0.48719582,0.104115576,-0.09289821,0.36232436,0.46584737,-0.39252213,-0.50550133,0.1801809,791.75824,744.61536,778.46155,772.8205,872.74725,100,0,0.063842773,0.146850586,0.979614258,3.633728027,-4.254302979,-3.573913574,1,1,1,1,1,50,happy
34:24.1,0.32099456,1.1775291,0.51699966,1.3092338,0.2485815,0.4958745,-0.08618738,0.587729,1.1794604,0.11176309,0.21869653,0.6635173,0.5582077,0.054132577,-0.0713821,0.36845827,0.5310778,-0.41284424,-0.4810194,0.323601,892.8938,847.3626,790.9524,898.1319,842.9304,100,2,0.044006348,0.160522461,0.991577148,4.344024658,-3.177642822,-1.532745361,1,1,1,1,1,50,happy
34:25.1,0.41858128,1.1775291,0.70370024,1.268567,0.11085337,0.4958745,-0.1295047,0.6008117,0.85530037,0.11176309,0.16160396,0.66076577,0.54741305,0.054132577,-0.10043252,0.40271732,0.35651898,-0.41284424,-0.459063,0.3417142,775.2381,756.7033,768.3883,773.22345,691.02563,100,21.999996,0.042419434,0.139709473,0.98449707,2.743988037,-2.766418457,-2.616882324,1,1,1,1,1,50,happy
34:26.1,0.41858128,1.1775291,0.70370024,1.268567,0.11085337,0.4958745,-0.1295047,0.6008117,0.85530037,0.11176309,0.16160396,0.66076577,0.54741305,0.054132577,-0.10043252,0.40271732,0.35651898,-0.41284424,-0.459063,0.3417142,799.81683,795.78754,784.10254,796.1905,710.7692,100,42.000004,0.034606934,0.146362305,0.984985352,3.401947021,-3.177642822,-2.340240479,1,1,1,1,1,50,happy
34:27.1,1.2168548,0.69383174,1.1766381,1.0429806,-0.13095172,0.7848146,0.3927998,0.45705244,0.6038028,0.43098757,0.73876303,0.60644543,0.43614662,0.1717866,0.36464447,0.45102295,0.07113442,-0.024227569,0.021806402,0.108572945,792.5641,804.65204,743.00366,809.4872,854.61536,98,58,0.032409668,0.151672363,0.987121582,2.407531738,-4.299163818,-3.491668701,1,1,1,1,1,50,happy
