TimeStamp,Delta_TP9,Delta_AF7,Delta_AF8,Delta_TP10,Theta_TP9,Theta_AF7,Theta_AF8,Theta_TP10,Alpha_TP9,Alpha_AF7,Alpha_AF8,Alpha_TP10,Beta_TP9,Beta_AF7,Beta_AF8,Beta_TP10,Gamma_TP9,Gamma_AF7,Gamma_AF8,Gamma_TP10,RAW_TP9,RAW_AF7,RAW_AF8,RAW_TP10,AUX_RIGHT,Accelerometer_X,Accelerometer_Y,Accelerometer_Z,Gyro_X,Gyro_Y,Gyro_Z,HeadBandOn,HSI_TP9,HSI_AF7,HSI_AF8,HSI_TP10,Battery,Elements
2021-10-15 00:02:36.213,0.56538063,0.952101,1.0509706,1.4176924,-0.16717073,0.93447125,0.7752588,0.84145254,0.24604529,0.734205,0.49808696,0.68254954,0.24860008,0.81800234,0.52680284,0.71505255,0.02378424,0.4516222,-0.25841856,0.27944157,762.74725,809.4872,808.2784,780.87915,762.74725,0.13134765625,-0.03118896484375,1.0057373046875,5.271148681640625,-3.3197021484375,2.938385009765625,1,1.0,1.0,1.0,1.0,100.00
2021-10-15 00:02:36.705,,,,,,,,,,,,,,,,,,,,,,,,,,,,,,,,,,,,,,/muse/elements/blink
2021-10-15 00:02:36.747,0.56538063,0.952101,1.0509706,1.4176924,-0.16717073,0.93447125,0.7752588,0.84145254,0.24604529,0.734205,0.49808696,0.68254954,0.24860008,0.81800234,0.52680284,0.71505255,0.02378424,0.4516222,-0.25841856,0.27944157,848.1685,815.5311,763.5531,799.011,788.93774,0.05596923828125,-0.0306396484375,0.99639892578125,7.947845458984375,2.093505859375,25.548248291015625,1,1.0,1.0,1.0,1.0,100.00
2021-10-15 00:02:37.264,0.56538063,0.952101,1.0509706,1.4176924,-0.16717073,0.93447125,0.7752588,0.84145254,0.24604529,0.734205,0.49808696,0.68254954,0.24860008,0.81800234,0.52680284,0.71505255,0.02378424,0.4516222,-0.25841856,0.27944157,767.5824,753.8828,766.77655,781.685,747.4359,0.04852294921875,-0.02886962890625,1.01092529296875,4.77020263671875,-6.41510009765625,0.25421142578125,1,1.0,1.0,1.0,1.0,100.00
2021-10-15 00:02:37.780,0.56538063,0.952101,1.0509706,1.4176924,-0.16717073,0.93447125,0.7752588,0.84145254,0.24604529,0.734205,0.49808696,0.68254954,0.24860008,0.81800234,0.52680284,0.71505255,0.02378424,0.4516222,-0.25841856,0.27944157,815.9341,872.3443,770.0,775.2381,748.24176,0.0731201171875,-0.0352783203125,1.009521484375,5.525360107421875,-5.66741943359375,-2.848663330078125,1,1.0,1.0,1.0,1.0,100.00
2021-10-15 00:02:38.283,0.56538063,0.952101,1.2530886,0.17744032,-0.16717073,0.93447125,1.4467449,0.118044056,0.24604529,0.734205,1.0901697,0.43100867,0.24860008,0.81800234,0.66713667,0.4669708,0.02378424,0.4516222,0.3980625,0.14658746,825.6044,818.3516,763.95605,796.99634,1002.8938,0.05908203125,-0.0380859375,1.008544921875,5.988922119140625,-3.48419189453125,-0.889739990234375,1,1.0,1.0,1.0,1.0,100.00
2021-10-15 00:02:38.805,0.48267838,0.952101,1.1341245,0.4016347,0.6114111,0.93447125,1.2413293,0.42088032,0.83018166,0.734205,1.1522418,0.6375663,0.32660985,0.81800234,0.6066976,0.5625753,-0.11417811,0.4516222,0.34192294,0.21800126,813.5165,801.02563,794.17584,796.99634,706.337,0.06768798828125,-0.02874755859375,1.01361083984375,5.93658447265625,-2.250518798828125,-0.8074951171875,1,1.0,1.0,1.0,1.0,100.00
2021-10-15 00:02:39.329,0.5256521,0.952101,1.001006,0.49877664,0.64602923,0.93447125,1.1091574,0.52926093,0.8855145,0.734205,1.1529778,0.6351527,0.3955113,0.81800234,0.61349595,0.6341735,-0.05531809,0.4516222,0.22492883,0.19682246,778.0586,857.4359,778.46155,784.5055,647.1062,0.0474853515625,-0.02435302734375,1.0146484375,7.177734375,-0.22430419921875,5.286102294921875,1,1.0,1.0,1.0,1.0,100.00
2021-10-15 00:02:39.617,,,,,,,,,,,,,,,,,,,,,,,,,,,,,,,,,,,,,,/muse/elements/blink
2021-10-15 00:02:39.861,0.42252418,0.952101,0.9375297,0.5621477,0.72557414,0.93447125,0.7946592,0.6270026,0.8855145,0.734205,1.0382568,0.6351527,0.41511887,0.81800234,0.54304296,0.6856255,-0.05009754,0.4516222,0.10382749,0.21505556,842.9304,919.4872,765.16486,813.1135,822.381,0.02349853515625,0.02020263671875,1.01751708984375,8.56842041015625,-2.332763671875,-4.29168701171875,1,1.0,1.0,1.0,1.0,100.00
2021-10-15 00:02:40.365,0.593683,0.952101,0.93522173,0.5814801,0.7021374,0.93447125,0.57794845,0.66771644,0.8091792,0.734205,1.0208322,0.5037645,0.49728283,0.81800234,0.56615025,0.7451276,0.033931546,0.4516222,-0.075312756,0.09632665,799.011,903.36993,763.5531,787.72894,727.6923,0.01513671875,0.03167724609375,1.01873779296875,5.4730224609375,-1.009368896484375,-2.34771728515625,1,1.0,1.0,1.0,1.0,100.00
2021-10-15 00:02:40.891,0.6322612,0.952101,1.105304,0.5814801,0.54769117,0.93447125,0.58396953,0.66771644,0.6190321,0.734205,0.94344884,0.5037645,0.49110216,0.81800234,0.5169935,0.7451276,0.070204176,0.4516222,-0.0071159154,0.09632665,858.24176,835.6777,716.4103,832.8571,761.53845,-0.03179931640625,0.04742431640625,1.061279296875,5.86181640625,-4.957122802734375,-30.916595458984375,1,1.0,1.0,1.0,1.0,100.00
2021-10-15 00:02:41.397,1.0150253,0.952101,1.1221851,1.08512,0.5368697,0.93447125,0.6511586,0.9319925,0.5354957,0.734205,0.94344884,0.9921275,0.63521194,0.81800234,0.6174422,0.6918479,0.30457994,0.4516222,1.7840917E-4,0.24092995,821.978,829.2308,933.5897,813.5165,831.6484,-0.21380615234375,-0.02099609375,1.00225830078125,-1.03179931640625,16.94244384765625,24.95758056640625,1,1.0,1.0,1.0,1.0,100.00
2021-10-15 00:02:41.601,,,,,,,,,,,,,,,,,,,,,,,,,,,,,,,,,,,,,,/muse/elements/blink
2021-10-15 00:02:41.906,1.0150253,0.952101,1.1221851,1.1601436,0.5368697,0.93447125,0.6511586,1.2510868,0.5354957,0.734205,0.94344884,1.3896598,0.63521194,0.81800234,0.6174422,0.8463464,0.30457994,0.4516222,1.7840917E-4,0.33681852,697.8755,807.0696,875.16486,744.21246,578.60803,-0.13568115234375,0.02471923828125,1.0467529296875,2.67669677734375,-12.015228271484375,1.263580322265625,1,1.0,1.0,1.0,1.0,100.00
2021-10-15 00:02:42.428,1.0150253,0.952101,1.1221851,1.3441489,0.5368697,0.93447125,0.6511586,1.4432063,0.5354957,0.734205,0.94344884,1.3896598,0.63521194,0.81800234,0.6174422,0.9506319,0.30457994,0.4516222,1.7840917E-4,0.5150584,759.92676,773.22345,807.8755,798.60803,734.1392,-0.0906982421875,0.0301513671875,1.02655029296875,14.534912109375,-5.420684814453125,7.955322265625,1,1.0,1.0,1.0,1.0,100.00
2021-10-15 00:02:42.959,1.0150253,0.952101,1.1221851,1.3634317,0.5368697,0.93447125,0.6511586,1.5881008,0.5354957,0.734205,0.94344884,1.3896598,0.63521194,0.81800234,0.6174422,1.0502832,0.30457994,0.4516222,1.7840917E-4,0.60418546,734.1392,847.76556,794.9817,780.07324,672.49084,-0.135986328125,0.0205078125,1.00115966796875,5.86181640625,-0.082244873046875,2.3028564453125,1,1.0,1.0,1.0,1.0,100.00
2021-10-15 00:02:43.472,0.88288414,0.952101,1.1221851,1.1337757,0.6056882,0.93447125,0.6511586,1.0746521,0.7609576,0.734205,0.94344884,1.2727544,0.7142582,0.81800234,0.6174422,0.89020467,0.26855323,0.4516222,1.7840917E-4,0.4680695,762.3443,816.337,745.82416,766.3736,650.32965,-0.217529296875,0.05657958984375,0.9984130859375,3.611297607421875,-8.5833740234375,-0.500946044921875,1,1.0,1.0,1.0,1.0,100.00
2021-10-15 00:02:43.976,0.891794,0.952101,0.68503153,0.85541654,0.8474501,0.93447125,0.9131221,0.6546523,0.9164537,0.734205,0.87826395,1.1623821,0.7154249,0.81800234,0.5198764,0.8939199,0.19548766,0.4516222,0.1907713,0.30964378,819.15753,754.68866,794.17584,842.9304,745.42126,-0.1768798828125,0.0634765625,0.99871826171875,4.5458984375,-0.538330078125,-7.04315185546875,1,1.0,1.0,1.0,1.0,100.00
2021-10-15 00:02:44.072,,,,,,,,,,,,,,,,,,,,,,,,,,,,,,,,,,,,,,/muse/elements/blink
2021-10-15 00:02:44.499,0.82419324,0.952101,0.68503153,0.85541654,0.8480964,0.93447125,0.9131221,0.6546523,0.88484085,0.734205,0.87826395,1.1623821,0.7156263,0.81800234,0.5198764,0.8939199,0.075250775,0.4516222,0.1907713,0.30964378,831.2454,746.63007,786.1172,803.8461,696.6667,-0.09375,0.03961181640625,1.01361083984375,4.77020263671875,-11.36474609375,-1.9140625,1,1.0,1.0,1.0,1.0,100.00
2021-10-15 00:02:45.025,0.8453036,0.952101,0.68503153,0.7870052,0.99369156,0.93447125,0.9131221,0.81737417,0.86645705,0.734205,0.87826395,1.1459289,0.7160291,0.81800234,0.5198764,0.9163576,0.02156957,0.4516222,0.1907713,0.30264476,763.95605,749.85345,783.69965,782.8938,913.0403,-0.09906005859375,0.03045654296875,1.02777099609375,1.65985107421875,-5.4132080078125,-0.859832763671875,1,1.0,1.0,1.0,1.0,100.00
2021-10-15 00:02:45.527,0.8453036,0.952101,0.68503153,0.7870052,0.99369156,0.93447125,0.9131221,0.81737417,0.86645705,0.734205,0.87826395,1.1459289,0.7160291,0.81800234,0.5198764,0.9163576,0.02156957,0.4516222,0.1907713,0.30264476,790.14655,712.381,786.9231,776.4469,806.26373,1.220703125E-4,0.0013427734375,1.01434326171875,9.009552001953125,-15.02838134765625,-2.878570556640625,1,1.0,1.0,1.0,1.0,100.00
2021-10-15 00:02:46.031,1.4688115,0.952101,0.9197388,1.3239986,1.1020616,0.93447125,0.17805839,1.0127932,1.0280702,0.734205,0.5292606,0.88051105,0.59664726,0.81800234,0.48606938,0.47532848,0.09687189,0.4516222,0.095763974,0.2443112,862.674,924.7253,791.3553,830.84247,698.68134,-0.01373291015625,-0.01214599609375,1.0115966796875,1.39068603515625,-9.114227294921875,-5.764617919921875,1,1.0,1.0,1.0,1.0,95.00
2021-10-15 00:02:46.362,,,,,,,,,,,,,,,,,,,,,,,,,,,,,,,,,,,,,,/muse/elements/blink
2021-10-15 00:02:46.561,1.4688115,0.952101,1.0211304,1.3239986,1.1020616,0.93447125,0.30614692,1.0127932,1.0280702,0.734205,0.7779078,0.88051105,0.59664726,0.81800234,0.51485664,0.47532848,0.09687189,0.4516222,0.07876372,0.2443112,788.93774,680.14655,750.65936,788.93774,729.304,0.06842041015625,-0.03619384765625,1.02557373046875,6.69921875,-4.314117431640625,-6.4898681640625,1,1.0,1.0,1.0,1.0,95.00
2021-10-15 00:02:47.073,1.6248798,0.952101,1.0873055,1.5743128,1.625831,0.93447125,0.38138345,1.5465158,1.856561,0.734205,0.7779078,1.5549437,0.96085304,0.81800234,0.48875314,0.9804521,0.49095908,0.4516222,0.08044344,0.58189064,747.4359,842.52747,796.99634,787.72894,830.0366,-0.0863037109375,-0.0391845703125,0.99786376953125,6.871185302734375,-0.61309814453125,-6.317901611328125,1,1.0,1.0,1.0,1.0,95.00
2021-10-15 00:02:47.584,1.5952321,0.952101,1.2029727,1.6332788,1.6937667,0.93447125,0.47952008,1.7134278,1.856561,0.734205,0.76973605,1.5658952,1.0190787,0.81800234,0.58438843,1.1883466,0.58131546,0.4516222,0.04118955,0.7296863,769.59705,803.8461,812.3077,788.1319,637.03296,-0.05389404296875,-0.0218505859375,1.01519775390625,6.98333740234375,-3.050537109375,-1.278533935546875,1,1.0,1.0,1.0,1.0,95.00
2021-10-15 00:02:48.090,1.4397824,0.952101,1.2029727,1.477872,1.477735,0.93447125,0.47952008,1.545399,1.856561,0.734205,0.76973605,1.5658952,0.88297457,0.81800234,0.58438843,1.0584285,0.49079207,0.4516222,0.04118955,0.6154065,807.0696,790.14655,801.4286,794.57874,808.2784,-0.07275390625,-0.02099609375,1.0029296875,5.301055908203125,-4.5159912109375,-0.91217041015625,1,1.0,1.0,1.0,1.0,95.00
2021-10-15 00:02:48.433,,,,,,,,,,,,,,,,,,,,,,,,,,,,,,,,,,,,,,/muse/elements/blink
2021-10-15 00:02:48.630,1.1327804,0.952101,1.1945056,0.9292916,0.951975,0.93447125,1.07701,0.79827625,1.2867295,0.734205,0.8001072,0.89064986,0.5820636,0.81800234,0.40042925,0.70559055,0.3070019,0.4516222,-0.06949959,0.24078341,809.4872,786.52014,769.19415,779.67035,1070.989,-0.03192138671875,-0.011474609375,1.01812744140625,5.03936767578125,-6.1309814453125,0.276641845703125,1,1.0,1.0,1.0,1.0,95.00
2021-10-15 00:02:49.155,,,,,,,,,,,,,,,,,,,,,,,,,,,,,,,,,,,,,,/muse/elements/blink
2021-10-15 00:02:49.158,1.0002419,0.952101,1.1324862,0.64575326,0.9406988,0.93447125,0.9992151,0.2893963,1.3385558,0.734205,0.80020434,0.45631453,0.73186976,0.81800234,0.4634088,0.5222347,0.30626532,0.4516222,-0.10065283,0.19931783,786.1172,772.01465,801.8315,792.96704,770.40295,0.0234375,-0.05352783203125,1.02001953125,8.934783935546875,-7.588958740234375,-1.12152099609375,1,1.0,1.0,1.0,1.0,95.00
2021-10-15 00:02:49.457,,,,,,,,,,,,,,,,,,,,,,,,,,,,,,,,,,,,,,/muse/elements/blink
2021-10-15 00:02:49.671,1.1166378,0.952101,0.99099535,0.64575326,1.0846099,0.93447125,0.86713153,0.2893963,1.3385558,0.734205,0.7192015,0.45631453,0.81339496,0.81800234,0.46005222,0.5222347,0.29805487,0.4516222,-0.14842573,0.19931783,837.6923,826.8132,821.5751,805.8608,664.43225,0.011474609375,-0.008544921875,1.0169677734375,5.72723388671875,0.95703125,-4.18701171875,1,1.0,1.0,1.0,1.0,95.00
2021-10-15 00:02:50.186,1.1166378,0.952101,1.0330323,1.3648138,1.0846099,0.93447125,0.86752605,1.7258384,1.3385558,0.734205,0.6583014,1.2040799,0.81339496,0.81800234,0.5352866,0.541342,0.29805487,0.4516222,-0.14600416,0.82774234,809.4872,848.1685,843.3333,801.02563,617.6923,0.01336669921875,-6.103515625E-5,1.01324462890625,7.22259521484375,-7.110443115234375,-0.620574951171875,1,1.0,1.0,1.0,1.0,95.00
2021-10-15 00:02:50.696,1.1166378,0.952101,1.12734,1.3648138,1.0846099,0.93447125,0.8415276,1.7258384,1.3385558,0.734205,0.52344614,1.2040799,0.81339496,0.81800234,0.5161606,0.541342,0.29805487,0.4516222,-0.19594619,0.82774234,828.4249,888.46155,814.7253,794.17584,829.2308,0.0223388671875,-9.765625E-4,1.011962890625,6.018829345703125,-4.486083984375,-3.78326416015625,1,1.0,1.0,1.0,1.0,95.00
2021-10-15 00:02:51.221,1.1166378,0.952101,0.94641703,1.2683073,1.0846099,0.93447125,1.0564086,1.614941,1.3385558,0.734205,1.0564656,1.0381997,0.81339496,0.81800234,0.5776694,0.614782,0.29805487,0.4516222,-0.04505629,0.6796728,809.0842,838.49817,832.4542,805.4579,616.4835,0.0247802734375,-0.00213623046875,1.01605224609375,5.60760498046875,-1.876678466796875,1.4056396484375,1,1.0,1.0,1.0,1.0,95.00
2021-10-15 00:02:51.737,0.69973713,0.952101,1.1640857,1.2683073,0.46498865,0.93447125,1.1097344,1.614941,0.73960835,0.734205,1.0972838,1.0381997,0.6918275,0.81800234,0.75436574,0.614782,0.5190056,0.4516222,0.18750988,0.6796728,756.7033,834.4689,807.8755,783.69965,610.84247,1.220703125E-4,0.0067138671875,1.0130615234375,7.16278076171875,-4.029998779296875,-1.7645263671875,1,1.0,1.0,1.0,1.0,95.00
2021-10-15 00:02:52.240,0.16429311,0.952101,1.135059,0.17090213,0.2002642,0.93447125,1.0786729,0.07213319,0.56582963,0.734205,1.0972838,0.46915513,0.6672433,0.81800234,0.7392101,0.6191071,0.3848678,0.4516222,0.18925169,0.54373,751.06226,827.619,805.4579,785.7143,726.08057,-0.00494384765625,0.00726318359375,1.01898193359375,5.555267333984375,-3.446807861328125,-1.8243408203125,1,1.0,1.0,1.0,1.0,95.00
2021-10-15 00:02:52.753,0.1384875,0.952101,1.2468601,0.59391314,0.12715696,0.93447125,1.0963924,0.14694773,0.5951899,0.734205,0.8172066,0.60590535,0.61678123,0.81800234,0.8391838,0.6349576,0.34612504,0.4516222,0.318772,0.42411527,769.19415,771.2088,753.0769,796.99634,653.5531,-0.00592041015625,0.01263427734375,1.0133056640625,5.764617919921875,-4.179534912109375,-2.58697509765625,1,1.0,1.0,1.0,1.0,95.00
2021-10-15 00:02:53.273,0.18138964,0.952101,1.3065566,0.6101992,0.37091544,0.93447125,1.0722568,0.3859367,0.61534667,0.734205,0.79637855,0.7343743,0.6647789,0.81800234,0.85237104,0.6656241,0.3292616,0.4516222,0.30581677,0.4314842,728.9011,799.011,781.685,769.59705,644.68866,-0.0113525390625,0.01812744140625,1.01556396484375,5.84686279296875,-3.775787353515625,-2.16827392578125,1,1.0,1.0,1.0,1.0,95.00
2021-10-15 00:02:53.809,0.42506897,0.952101,1.3065566,0.75672567,0.52618957,0.93447125,1.0722568,0.53193027,0.7866844,0.734205,0.79637855,0.81922066,0.71912265,0.81800234,0.85237104,0.66877013,0.37472156,0.4516222,0.30581677,0.29111028,843.73627,796.1905,785.31134,824.3956,1276.0806,-0.0089111328125,0.01971435546875,1.01666259765625,6.35528564453125,-3.342132568359375,-1.6748046875,1,1.0,1.0,1.0,1.0,95.00
2021-10-15 00:02:54.344,0.41141063,0.952101,0.7387069,0.56840044,0.6065133,0.93447125,0.7030001,0.5683317,0.78174907,0.734205,0.3831145,0.82359844,0.7291568,0.81800234,0.40093365,0.6800224,0.34363267,0.4516222,-0.007466847,0.36492094,814.7253,802.23444,777.6557,792.5641,726.4835,-0.01788330078125,0.0181884765625,1.0203857421875,7.58148193359375,-0.800018310546875,-12.1124267578125,1,1.0,1.0,1.0,1.0,95.00
2021-10-15 00:02:54.586,,,,,,,,,,,,,,,,,,,,,,,,,,,,,,,,,,,,,,/muse/elements/blink
2021-10-15 00:02:54.860,0.44533908,0.952101,0.7552708,0.5171994,0.546924,0.93447125,0.6828311,0.5157534,0.7730974,0.734205,0.41789457,0.80877966,0.71920717,0.81800234,0.40582922,0.6753289,0.21977702,0.4516222,-0.026557283,0.3504856,808.68134,782.0879,807.47253,820.3663,895.31134,-0.08367919921875,0.05657958984375,1.0111083984375,8.396453857421875,0.530853271484375,-5.5926513671875,1,1.0,1.0,1.0,1.0,95.00
2021-10-15 00:02:55.375,0.22950439,0.952101,0.7082586,0.0014214438,0.6200267,0.93447125,0.544409,0.49585244,0.4963506,0.734205,0.3637763,0.7638377,0.50642765,0.81800234,0.4525749,0.70276445,0.06187103,0.4516222,-0.07832611,0.4416643,850.18317,789.34064,774.43225,803.44324,733.3333,-0.08856201171875,0.041015625,1.00555419921875,3.170166015625,-4.179534912109375,2.355194091796875,1,1.0,1.0,1.0,1.0,95.00
2021-10-15 00:02:55.889,0.62428904,0.952101,0.7082586,0.0014214438,0.4473909,0.93447125,0.544409,0.49585244,0.7269299,0.734205,0.3637763,0.7638377,0.7866213,0.81800234,0.4525749,0.70276445,0.2913981,0.4516222,-0.07832611,0.4416643,828.022,796.5934,797.8022,803.44324,682.96704,-0.08111572265625,0.0396728515625,1.0069580078125,11.028289794921875,-7.10296630859375,1.8841552734375,1,1.0,1.0,1.0,1.0,95.00
2021-10-15 00:02:56.425,0.64343977,0.952101,0.80266386,0.42053533,0.7603025,0.93447125,0.25441387,0.12999894,0.79871464,0.734205,0.61116976,0.491187,0.75189936,0.81800234,0.33217955,0.4731513,0.27785525,0.4516222,-0.0063135494,0.33283263,782.49084,855.0183,818.3516,804.2491,724.87177,-0.06768798828125,0.05706787109375,1.0205078125,4.015045166015625,-3.48419189453125,-1.233673095703125,1,1.0,1.0,1.0,1.0,95.00
2021-10-15 00:02:56.954,0.6763166,0.952101,0.80266386,0.5403275,0.9085176,0.93447125,0.25441387,0.49437487,0.8078733,0.734205,0.61116976,0.5695484,0.7655952,0.81800234,0.33217955,0.6524282,0.31058714,0.4516222,-0.0063135494,0.48719755,743.8095,834.0659,796.1905,791.3553,622.52747,-0.0164794921875,0.03253173828125,1.01275634765625,6.02630615234375,-4.59075927734375,4.44122314453125,1,1.0,1.0,1.0,1.0,95.00
2021-10-15 00:02:57.457,0.8676123,0.952101,0.8569299,0.78521293,0.9584383,0.93447125,0.5109369,0.48559448,0.8459185,0.734205,0.7511979,0.6876088,0.78084344,0.81800234,0.41678596,0.6900249,0.33535036,0.4516222,0.10205168,0.45764256,749.85345,776.04395,807.0696,791.3553,691.8315,-0.05694580078125,0.046875,1.004150390625,4.448699951171875,-3.6785888671875,-1.734619140625,1,1.0,1.0,1.0,1.0,95.00
2021-10-15 00:02:57.995,0.9534523,0.952101,0.93592334,0.93240255,0.87727374,0.93447125,0.86879575,0.5375535,0.90935516,0.734205,1.0776056,0.69209343,0.73958,0.81800234,0.70368075,0.69916075,0.3301099,0.4516222,0.3343434,0.47809923,821.978,733.73627,775.2381,805.4579,1077.4359,-0.0384521484375,0.02557373046875,1.04461669921875,6.519775390625,-4.314117431640625,2.175750732421875,1,1.0,1.0,1.0,1.0,95.00
2021-10-15 00:02:58.521,0.9019372,0.952101,1.0047351,0.99774665,0.62140065,0.93447125,0.96874166,0.52525675,0.9321629,0.734205,1.1213934,0.7539071,0.6724889,0.81800234,0.75059223,0.6513648,0.22150378,0.4516222,0.35567605,0.42285514,745.0183,847.76556,794.17584,777.6557,713.9927,-0.0574951171875,0.07037353515625,1.021484375,12.598419189453125,-9.054412841796875,-14.288177490234375,1,1.0,1.0,1.0,1.0,95.00
2021-10-15 00:02:59.032,0.8121609,0.952101,1.0980552,0.8923188,0.5658132,0.93447125,1.077864,0.6581117,0.91738594,0.734205,1.1195726,0.7124405,0.6524401,0.81800234,0.87061065,0.6578093,0.16755013,0.4516222,0.43618885,0.47053224,780.07324,814.7253,788.93774,787.72894,772.8205,-0.03277587890625,0.0277099609375,0.99420166015625,-9.0020751953125,7.319793701171875,-3.611297607421875,1,1.0,1.0,1.0,1.0,95.00
2021-10-15 00:02:59.555,0.8138214,0.952101,1.0980552,1.0398575,0.7436383,0.93447125,1.077864,0.84884167,0.91320544,0.734205,1.1195726,0.7559193,0.70534754,0.81800234,0.87061065,0.7608545,0.1954765,0.4516222,0.43618885,0.50183266,827.2161,804.2491,819.15753,833.2601,728.49817,-0.0084228515625,-0.00714111328125,1.0426025390625,9.34600830078125,-2.9608154296875,-1.188812255859375,1,1.0,1.0,1.0,1.0,95.00
2021-10-15 00:03:00.083,0.81740093,0.952101,1.0980552,1.0458931,0.7205409,0.93447125,1.077864,0.82295066,0.77652454,0.734205,1.1195726,1.0236192,0.73891115,0.81800234,0.87061065,0.84231275,0.30594873,0.4516222,0.43618885,0.4893407,849.7802,954.5421,888.86444,826.0073,817.5458,0.045654296875,-0.0189208984375,1.01556396484375,8.441314697265625,-4.23187255859375,-11.05072021484375,1,1.0,1.0,1.0,1.0,95.00
2021-10-15 00:03:00.586,0.79571044,0.952101,1.0980552,1.1118706,0.7879578,0.93447125,1.077864,0.8821334,0.71248347,0.734205,1.1195726,1.3631554,0.76900846,0.81800234,0.87061065,1.0390532,0.39279625,0.4516222,0.43618885,0.5069614,820.3663,1036.7399,861.06226,778.86444,730.9158,-0.04632568359375,0.02728271484375,1.06085205078125,11.79840087890625,36.314849853515625,8.740386962890625,1,1.0,1.0,1.0,1.0,95.00
2021-10-15 00:03:01.105,0.93961376,0.952101,1.0980552,1.1580548,0.72864383,0.93447125,1.077864,1.2259996,1.0162126,0.734205,1.1195726,1.4454935,0.85789984,0.81800234,0.87061065,1.1412376,0.45994958,0.4516222,0.43618885,0.5250097,805.8608,860.2564,742.1978,781.685,695.05493,-0.09271240234375,0.08587646484375,1.02874755859375,13.3087158203125,-16.247100830078125,-13.645172119140625,1,1.0,1.0,4.0,1.0,95.00
2021-10-15 00:03:01.618,1.3993427,0.952101,1.0980552,1.4215506,1.3772184,0.93447125,1.077864,1.5350037,1.1524454,0.734205,1.1195726,1.4506007,1.0091866,0.81800234,0.87061065,1.1515895,0.51982355,0.4516222,0.43618885,0.583794,736.9597,797.3993,933.1868,792.1612,774.83514,-0.0467529296875,0.06024169921875,1.00762939453125,5.9814453125,-4.74029541015625,0.88226318359375,1,1.0,1.0,1.0,1.0,95.00
2021-10-15 00:03:02.137,1.6509671,0.952101,1.0980552,1.5221409,1.4793257,0.93447125,1.077864,1.6204115,1.2058092,0.734205,1.1195726,1.2851285,1.0052751,0.81800234,0.87061065,1.0677258,0.52505535,0.4516222,0.43618885,0.6285667,766.77655,851.39197,904.57874,782.49084,722.0513,-0.030029296875,0.05462646484375,1.010498046875,7.917938232421875,-6.26556396484375,0.79254150390625,1,1.0,1.0,1.0,1.0,95.00
2021-10-15 00:03:02.652,1.6594665,0.952101,1.0980552,1.6140884,1.5101069,0.93447125,1.077864,1.6453089,1.1427706,0.734205,1.1195726,1.1695491,0.9826422,0.81800234,0.87061065,0.9557866,0.5317978,0.4516222,0.43618885,0.69743526,753.8828,840.10986,859.45056,769.59705,813.1135,0.0059814453125,0.0479736328125,1.02667236328125,5.016937255859375,-4.987030029296875,-0.186920166015625,1,1.0,1.0,1.0,1.0,95.00
2021-10-15 00:03:03.172,1.7431022,0.952101,1.0980552,1.4777236,1.3995736,0.93447125,1.077864,1.3031607,1.141402,0.734205,1.1195726,1.0941814,0.8871089,0.81800234,0.87061065,0.93143684,0.57243735,0.4516222,0.43618885,0.78019744,837.6923,803.0403,782.0879,808.2784,770.0,0.09783935546875,0.02655029296875,0.99102783203125,6.512298583984375,3.30474853515625,-15.095672607421875,1,1.0,1.0,1.0,1.0,95.00
2021-10-15 00:03:03.694,1.7431022,0.952101,1.0980552,1.4777236,1.3995736,0.93447125,1.077864,1.3031607,1.141402,0.734205,1.1195726,1.0941814,0.8871089,0.81800234,0.87061065,0.93143684,0.57243735,0.4516222,0.43618885,0.78019744,774.83514,763.1502,769.19415,774.43225,791.3553,0.0125732421875,0.03839111328125,1.00299072265625,5.824432373046875,-0.67291259765625,-0.276641845703125,1,1.0,1.0,1.0,1.0,95.00
2021-10-15 00:03:04.222,1.2587973,0.952101,1.0980552,1.3731583,0.9570447,0.93447125,1.077864,1.4922144,1.1026977,0.734205,1.1195726,1.6179904,0.9373476,0.81800234,0.87061065,1.2192411,0.55712175,0.4516222,0.43618885,0.6556315,796.1905,819.5604,823.1868,772.8205,680.9524,0.0120849609375,0.06353759765625,1.02716064453125,4.62066650390625,-0.710296630859375,10.347900390625,1,1.0,1.0,1.0,1.0,95.00
2021-10-15 00:03:04.751,1.260452,0.952101,1.0980552,1.2707654,0.8748554,0.93447125,1.077864,1.3928207,1.1456369,0.734205,1.1195726,1.6179904,0.87923664,0.81800234,0.87061065,1.1491057,0.6680099,0.4516222,0.43618885,0.67849,859.45056,736.55676,767.1795,832.4542,859.0476,0.04656982421875,0.05499267578125,0.97686767578125,10.4974365234375,-15.7611083984375,3.1402587890625,1,1.0,1.0,1.0,1.0,95.00
2021-10-15 00:03:05.289,1.278321,0.952101,1.0980552,1.156755,0.9708995,0.93447125,1.077864,1.2057887,1.1644593,0.734205,1.1195726,1.6179904,0.8365985,0.81800234,0.87061065,1.1040795,0.67651665,0.4516222,0.43618885,0.62451047,836.08057,907.8022,790.14655,821.1722,989.19415,0.06201171875,0.06671142578125,1.01666259765625,7.095489501953125,-2.743988037109375,1.51031494140625,1,1.0,1.0,1.0,1.0,95.00
2021-10-15 00:03:05.796,1.2928989,0.952101,1.0980552,1.0147209,0.91165054,0.93447125,1.077864,0.80904365,1.0552263,0.734205,1.1195726,1.0466902,0.74641925,0.81800234,0.87061065,0.91410285,0.6155,0.4516222,0.43618885,0.5356372,835.6777,1559.7435,775.64105,800.2198,664.0293,0.21173095703125,0.017822265625,1.0274658203125,-3.566436767578125,16.142425537109375,-11.596527099609375,1,1.0,1.0,1.0,1.0,95.00
2021-10-15 00:03:06.311,1.2128069,0.952101,1.0980552,0.9539636,1.104983,0.93447125,1.077864,0.9171089,1.2362396,0.734205,1.1195726,1.2268277,0.7993284,0.81800234,0.87061065,0.8473116,0.5149121,0.4516222,0.43618885,0.5349195,820.7692,867.50916,783.2967,799.41394,938.4249,-0.05133056640625,0.0338134765625,1.0015869140625,15.14801025390625,3.18511962890625,-7.37213134765625,1,1.0,1.0,1.0,1.0,95.00
2021-10-15 00:03:06.839,1.0953767,0.952101,1.0980552,1.1029103,1.1215521,0.93447125,1.077864,0.97747284,1.3122516,0.734205,1.1195726,1.2333198,0.884426,0.81800234,0.87061065,0.80559206,0.40227997,0.4516222,0.43618885,0.6138262,803.8461,461.35532,755.4945,803.44324,601.5751,-0.05194091796875,0.06005859375,1.04681396484375,1.114044189453125,-4.044952392578125,-11.005859375,1,1.0,4.0,1.0,1.0,100.00
2021-10-15 00:03:07.348,1.1225485,0.952101,1.0980552,1.2466538,1.0671666,0.93447125,1.077864,1.0358703,1.3122516,0.734205,1.1195726,1.2357694,0.9558676,0.81800234,0.87061065,0.91905963,0.45400542,0.4516222,0.43618885,0.692568,775.2381,803.44324,786.52014,794.17584,624.5421,-0.02728271484375,0.058837890625,1.013671875,8.007659912109375,-13.106842041015625,-0.2093505859375,1,1.0,1.0,1.0,1.0,100.00
2021-10-15 00:03:07.857,1.0918998,0.952101,1.0980552,1.2388787,0.72644526,0.93447125,1.077864,0.6678013,1.173299,0.734205,1.1195726,1.0805608,0.8881493,0.81800234,0.87061065,0.87331873,0.4021829,0.4516222,0.43618885,0.5573632,738.1685,794.17584,821.1722,808.68134,701.9048,0.05108642578125,0.10174560546875,1.02734375,7.259979248046875,7.94036865234375,7.559051513671875,1,1.0,1.0,1.0,1.0,100.00
2021-10-15 00:03:08.382,1.0578504,0.952101,1.0980552,1.0195358,0.745677,0.93447125,1.077864,0.7227312,1.0225798,0.734205,1.1195726,1.0950159,0.8240192,0.81800234,0.87061065,0.84375453,0.3676777,0.4516222,0.43618885,0.46695247,756.30035,788.5348,769.19415,784.90845,707.5458,0.02569580078125,0.05816650390625,1.02130126953125,-2.52716064453125,9.88433837890625,-9.869384765625,1,1.0,1.0,1.0,1.0,100.00
2021-10-15 00:03:08.888,0.95029765,0.952101,1.0980552,0.8070844,0.83964664,0.93447125,1.077864,0.80345994,0.9530658,0.734205,1.1195726,1.0845988,0.68174154,0.81800234,0.87061065,0.78703934,0.47627708,0.4516222,0.43618885,0.56200683,843.3333,715.2015,809.4872,815.9341,838.49817,-0.10113525390625,0.06805419921875,1.00811767578125,5.211334228515625,-2.400054931640625,8.052520751953125,1,1.0,1.0,1.0,1.0,100.00
2021-10-15 00:03:09.416,1.0836017,0.952101,1.0980552,1.0674117,1.0028832,0.93447125,1.077864,0.8991531,1.1899991,0.734205,1.1195726,1.2027417,0.68310934,0.81800234,0.87061065,0.8907526,0.53114116,0.4516222,0.43618885,0.5666217,815.9341,825.6044,779.67035,784.5055,747.8388,-0.06005859375,0.0733642578125,1.01898193359375,5.016937255859375,-5.27862548828125,0.351409912109375,1,1.0,1.0,1.0,1.0,100.00
2021-10-15 00:03:09.921,1.1380863,0.952101,1.0980552,1.0473428,0.94067127,0.93447125,1.077864,0.8021374,1.2094258,0.734205,1.1195726,1.2033017,0.73006344,0.81800234,0.87061065,0.90856594,0.52509695,0.4516222,0.43618885,0.56971896,841.7216,850.989,796.99634,792.5641,715.2015,-0.04254150390625,0.0740966796875,1.01055908203125,2.8411865234375,-8.7628173828125,-5.45806884765625,1,1.0,1.0,1.0,1.0,100.00
2021-10-15 00:03:10.438,1.04399,0.952101,1.0980552,0.9471453,0.9143094,0.93447125,1.077864,0.81666034,1.1358793,0.734205,1.1195726,1.1719621,0.8918724,0.81800234,0.87061065,0.97617066,0.5235449,0.4516222,0.43618885,0.6084649,862.674,812.71063,778.46155,841.7216,915.05493,0.01751708984375,0.0665283203125,1.033447265625,4.5758056640625,-5.0244140625,-12.3516845703125,1,1.0,1.0,1.0,1.0,100.00
2021-10-15 00:03:10.948,1.0699427,0.952101,1.0980552,0.7370633,0.8283488,0.93447125,1.077864,0.7728187,1.0269402,0.734205,1.1195726,1.1232314,0.8158993,0.81800234,0.87061065,0.93234694,0.48752025,0.4516222,0.43618885,0.6587567,783.2967,779.67035,762.74725,801.8315,722.4542,-0.05841064453125,0.09027099609375,1.0474853515625,6.960906982421875,-7.53662109375,0.16448974609375,1,1.0,1.0,1.0,1.0,100.00
2021-10-15 00:03:11.453,1.1087617,0.46339202,1.0980552,0.9619931,0.8306399,0.7516512,1.077864,0.8676066,0.8937037,1.0370752,1.1195726,0.9621399,0.8446995,0.972695,0.87061065,0.8623789,0.45648214,0.7659075,0.43618885,0.60818624,779.67035,755.09155,774.83514,800.2198,677.72894,0.04150390625,0.1322021484375,1.0322265625,12.777862548828125,-6.220703125,0.560760498046875,1,1.0,1.0,1.0,1.0,100.00
2021-10-15 00:03:11.960,1.0837663,0.46339202,0.97947335,1.0888152,0.8258209,0.7516512,1.0242984,0.7761521,0.9625602,1.0370752,0.5226285,0.96093863,0.7670351,0.972695,0.57136285,0.6384033,0.29041186,0.7659075,-0.15551448,0.41630974,760.32965,758.315,778.86444,794.57874,1153.5897,0.017822265625,0.07098388671875,0.99749755859375,8.740386962890625,-1.12152099609375,3.06549072265625,1,1.0,1.0,1.0,1.0,100.00
2021-10-15 00:03:12.465,0.99089694,0.46339202,0.97947335,1.115481,0.8343815,0.7516512,1.0242984,0.7893874,0.96664035,1.0370752,0.5226285,0.9203588,0.76730174,0.972695,0.57136285,0.5848136,0.3240922,0.7659075,-0.15551448,0.4144932,799.81683,606.4103,803.0403,798.60803,777.25275,-0.1361083984375,0.14111328125,0.97509765625,7.559051513671875,0.605621337890625,-3.476715087890625,1,1.0,1.0,1.0,1.0,100.00
2021-10-15 00:03:12.969,1.0111936,0.46339202,0.97947335,1.1504588,0.92235994,0.7516512,1.0242984,0.7856792,0.96535337,1.0370752,0.5226285,0.9054319,0.65855026,0.972695,0.57136285,0.4824722,0.36971492,0.7659075,-0.15551448,0.48500347,793.36993,877.98535,790.54944,788.1319,786.9231,-0.03857421875,0.109619140625,1.02520751953125,4.08233642578125,-6.826324462890625,-4.358978271484375,1,1.0,1.0,1.0,1.0,100.00
2021-10-15 00:03:13.499,1.1774237,0.46339202,0.97947335,1.3818868,0.97561365,0.7516512,1.0242984,0.8957836,0.6250649,1.0370752,0.5226285,0.54433095,0.6003983,0.972695,0.57136285,0.5521332,0.2342353,0.7659075,-0.15551448,0.37028787,782.49084,796.99634,783.69965,811.0989,799.81683,-0.09979248046875,0.09686279296875,1.004638671875,8.2843017578125,-5.330963134765625,-3.21502685546875,1,1.0,1.0,1.0,1.0,100.00
2021-10-15 00:03:14.004,1.0541507,0.46339202,0.97947335,1.3818868,0.710667,0.7516512,1.0242984,0.8957836,1.0854411,1.0370752,0.5226285,0.54433095,0.6368751,0.972695,0.57136285,0.5521332,0.08987704,0.7659075,-0.15551448,0.37028787,748.24176,801.02563,767.98535,762.3443,583.8461,-0.1175537109375,0.1011962890625,0.9947509765625,4.747772216796875,-9.787139892578125,-4.673004150390625,1,1.0,1.0,1.0,1.0,100.00
2021-10-15 00:03:14.519,1.0961592,0.46339202,0.9572507,1.2792819,0.8803258,0.7516512,0.36475584,0.8842941,1.2132857,1.0370752,0.81317496,1.1802782,0.7030717,0.972695,0.51921827,0.81496114,0.19376646,0.7659075,-0.091036744,0.27217078,823.1868,784.90845,800.2198,788.93774,668.46155,-0.09326171875,0.12445068359375,1.06158447265625,8.351593017578125,-20.45654296875,-6.92352294921875,1,1.0,1.0,1.0,1.0,100.00
2021-10-15 00:03:15.050,1.3168954,0.46339202,1.0503143,1.4999286,1.254207,0.7516512,0.44277006,1.2949908,1.2452544,1.0370752,0.8442676,1.2786677,0.72190106,0.972695,0.52652985,0.8621319,0.24744318,0.7659075,-0.08861513,0.3609542,804.2491,821.1722,757.1062,792.1612,854.21246,0.04681396484375,0.068359375,1.02362060546875,10.759124755859375,-8.710479736328125,2.3626708984375,1,1.0,1.0,1.0,1.0,100.00
2021-10-15 00:03:15.583,1.3107913,0.46339202,1.0503143,1.4486815,1.3055317,0.7516512,0.44277006,1.2629818,1.2389311,1.0370752,0.8442676,1.2780688,0.79853976,0.972695,0.52652985,0.9049251,0.3586258,0.7659075,-0.08861513,0.43157804,826.8132,948.9011,715.2015,798.20514,740.989,0.10546875,0.11151123046875,1.00799560546875,8.0450439453125,-25.712738037109375,14.9835205078125,1,1.0,1.0,1.0,1.0,100.00
2021-10-15 00:03:16.111,1.3405209,0.46339202,1.111904,1.54495,1.3318547,0.7516512,0.5278268,1.3890562,1.0978373,1.0370752,0.731992,1.1503221,0.79881084,0.972695,0.5175664,0.925983,0.37471655,0.7659075,-0.07871225,0.50730574,778.86444,875.9707,815.9341,770.0,792.96704,0.0406494140625,0.08319091796875,0.9921875,2.7215576171875,2.1234130859375,-12.1722412109375,1,1.0,1.0,1.0,1.0,100.00
2021-10-15 00:03:16.284,,,,,,,,,,,,,,,,,,,,,,,,,,,,,,,,,,,,,,/muse/elements/blink
2021-10-15 00:03:16.591,,,,,,,,,,,,,,,,,,,,,,,,,,,,,,,,,,,,,,/muse/elements/blink
2021-10-15 00:03:16.615,0.8957119,0.46339202,1.111904,1.0508872,0.99972796,0.7516512,0.5278268,0.8770361,1.3518168,1.0370752,0.731992,1.1388651,0.72836107,0.972695,0.5175664,1.1301132,0.35529378,0.7659075,-0.07871225,0.42321604,822.7839,734.1392,836.08057,843.3333,827.619,-0.091796875,0.079833984375,1.0037841796875,2.25799560546875,-5.286102294921875,3.626251220703125,1,1.0,1.0,1.0,1.0,100.00
2021-10-15 00:03:17.126,0.96324587,0.46339202,1.111904,1.0894536,1.2221166,0.7516512,0.5278268,0.8985634,1.3518168,1.0370752,0.731992,1.1290039,0.572862,0.972695,0.5175664,1.1524258,0.13302049,0.7659075,-0.07871225,0.3757916,832.4542,834.0659,882.01465,814.3223,766.3736,-0.0902099609375,0.1102294921875,1.02001953125,8.426361083984375,-3.4991455078125,-1.936492919921875,1,1.0,2.0,1.0,1.0,95.00
2021-10-15 00:03:17.586,,,,,,,,,,,,,,,,,,,,,,,,,,,,,,,,,,,,,,/muse/elements/blink
2021-10-15 00:03:17.647,0.96324587,0.46339202,1.111904,1.0894536,1.2221166,0.7516512,0.5278268,0.8985634,1.3518168,1.0370752,0.731992,1.1290039,0.572862,0.972695,0.5175664,1.1524258,0.13302049,0.7659075,-0.07871225,0.3757916,781.28204,815.9341,780.07324,774.43225,612.8571,0.26361083984375,0.06396484375,1.0316162109375,13.704986572265625,-22.482757568359375,-41.563568115234375,1,1.0,2.0,1.0,1.0,95.00
2021-10-15 00:03:18.171,0.96324587,0.46339202,1.111904,1.0894536,1.2221166,0.7516512,0.5278268,0.8985634,1.3518168,1.0370752,0.731992,1.1290039,0.572862,0.972695,0.5175664,1.1524258,0.13302049,0.7659075,-0.07871225,0.3757916,809.4872,1536.7766,694.2491,784.5055,718.022,0.23321533203125,0.1343994140625,1.00836181640625,8.8226318359375,-11.484375,9.73480224609375,1,1.0,4.0,1.0,1.0,95.00
2021-10-15 00:03:18.526,,,,,,,,,,,,,,,,,,,,,,,,,,,,,,,,,,,,,,/muse/elements/blink
2021-10-15 00:03:18.704,0.96324587,0.46339202,1.111904,1.0894536,1.2221166,0.7516512,0.5278268,0.8985634,1.3518168,1.0370752,0.731992,1.1290039,0.572862,0.972695,0.5175664,1.1524258,0.13302049,0.7659075,-0.07871225,0.3757916,767.5824,777.25275,888.0586,811.0989,944.0659,-0.07037353515625,0.09442138671875,1.04071044921875,16.217193603515625,-6.736602783203125,10.325469970703125,1,1.0,4.0,1.0,1.0,95.00
2021-10-15 00:03:19.220,0.96324587,0.46339202,1.111904,1.0894536,1.2221166,0.7516512,0.5278268,0.8985634,1.3518168,1.0370752,0.731992,1.1290039,0.572862,0.972695,0.5175664,1.1524258,0.13302049,0.7659075,-0.07871225,0.3757916,790.54944,798.60803,902.5641,791.3553,718.022,-0.06134033203125,0.115478515625,1.015625,4.598236083984375,-13.331146240234375,-6.826324462890625,1,2.0,2.0,1.0,2.0,95.00
2021-10-15 00:03:19.748,0.96324587,0.46339202,1.111904,1.0894536,1.2221166,0.7516512,0.5278268,0.8985634,1.3518168,1.0370752,0.731992,1.1290039,0.572862,0.972695,0.5175664,1.1524258,0.13302049,0.7659075,-0.07871225,0.3757916,805.4579,779.2674,984.35895,801.02563,682.1612,-0.04083251953125,-0.020263671875,1.008056640625,0.500946044921875,-3.820648193359375,-1.136474609375,1,2.0,4.0,1.0,2.0,95.00
2021-10-15 00:03:20.268,0.87007314,0.46339202,1.111904,1.0894536,0.28255087,0.7516512,0.5278268,0.8985634,0.39169744,1.0370752,0.731992,1.1290039,0.35959506,0.972695,0.5175664,1.1524258,0.021978376,0.7659075,-0.07871225,0.3757916,780.07324,557.25275,1245.0549,812.71063,763.5531,-0.00665283203125,-0.0067138671875,1.015380859375,11.746063232421875,-18.385467529296875,-2.31781005859375,1,1.0,4.0,1.0,1.0,95.00
2021-10-15 00:03:20.780,0.87007314,0.46339202,1.111904,1.0894536,0.28255087,0.7516512,0.5278268,0.8985634,0.39169744,1.0370752,0.731992,1.1290039,0.35959506,0.972695,0.5175664,1.1524258,0.021978376,0.7659075,-0.07871225,0.3757916,843.73627,929.5604,958.97437,790.14655,762.3443,-9.1552734375E-4,0.03814697265625,1.09228515625,49.107666015625,20.38177490234375,32.785797119140625,1,1.0,4.0,1.0,1.0,95.00
2021-10-15 00:03:21.282,0.912388,0.46339202,1.111904,1.1988822,0.30538645,0.7516512,0.5278268,1.303206,0.35539392,1.0370752,0.731992,1.4914616,0.37647122,0.972695,0.5175664,0.92185575,0.036095038,0.7659075,-0.07871225,0.6168207,844.5421,815.5311,851.39197,830.4396,874.7619,-0.04571533203125,0.08343505859375,0.9813232421875,-4.194488525390625,-6.50482177734375,-7.514190673828125,1,1.0,4.0,1.0,1.0,95.00
2021-10-15 00:03:21.451,,,,,,,,,,,,,,,,,,,,,,,,,,,,,,,,,,,,,,/muse/elements/blink
2021-10-15 00:03:21.789,0.912388,0.46339202,1.111904,1.2781354,0.30538645,0.7516512,0.5278268,1.8074396,0.35539392,1.0370752,0.731992,1.6870227,0.37647122,0.972695,0.5175664,0.8784658,0.036095038,0.7659075,-0.07871225,0.8407654,733.73627,880.80585,844.94507,778.46155,608.4249,0.002685546875,0.03607177734375,1.010498046875,3.671112060546875,2.145843505859375,-7.469329833984375,1,1.0,4.0,1.0,1.0,95.00
2021-10-15 00:03:22.311,0.912388,0.46339202,1.111904,1.3507931,0.30538645,0.7516512,0.5278268,1.7579107,0.35539392,1.0370752,0.731992,1.7313614,0.37647122,0.972695,0.5175664,0.8766333,0.036095038,0.7659075,-0.07871225,0.83090603,746.2271,826.8132,720.0366,819.15753,546.77655,-0.01739501953125,6.103515625E-4,1.000244140625,6.68426513671875,-1.435546875,-11.432037353515625,1,1.0,4.0,1.0,1.0,95.00
2021-10-15 00:03:22.824,0.912388,0.46339202,1.111904,1.5245818,0.30538645,0.7516512,0.5278268,1.7892984,0.35539392,1.0370752,0.731992,1.7182703,0.37647122,0.972695,0.5175664,0.8727067,0.036095038,0.7659075,-0.07871225,0.79564685,798.20514,944.0659,760.32965,782.49084,689.011,0.05096435546875,0.01837158203125,1.005615234375,7.2076416015625,-5.585174560546875,-9.9591064453125,1,1.0,4.0,1.0,1.0,95.00
2021-10-15 00:03:23.347,0.912388,0.46339202,1.111904,1.5677036,0.30538645,0.7516512,0.5278268,1.4418647,0.35539392,1.0370752,0.731992,1.5787568,0.37647122,0.972695,0.5175664,1.0011218,0.036095038,0.7659075,-0.07871225,0.6884566,829.6337,956.9597,785.7143,826.4103,1372.381,0.03302001953125,0.0479736328125,1.01068115234375,5.60760498046875,-2.31781005859375,-1.158905029296875,1,1.0,4.0,1.0,1.0,95.00
2021-10-15 00:03:23.884,0.71317047,0.46339202,1.111904,1.3668723,0.25429517,0.7516512,0.5278268,1.111232,1.1391145,1.0370752,0.731992,1.2019929,0.7371292,0.972695,0.5175664,0.95838326,0.7775859,0.7659075,-0.07871225,0.53411734,831.6484,906.1905,805.4579,809.4872,721.2454,0.0560302734375,0.03155517578125,1.01727294921875,5.263671875,-2.295379638671875,0.52337646484375,1,1.0,2.0,1.0,1.0,95.00
2021-10-15 00:03:24.400,0.8446445,0.46339202,1.111904,0.57002175,0.50126815,0.7516512,0.5278268,0.358408,1.1700068,1.0370752,0.731992,0.6850242,0.7284912,0.972695,0.5175664,0.786166,0.70091194,0.7659075,-0.07871225,0.6537067,846.9597,788.93774,791.75824,802.6374,811.9048,0.03887939453125,0.02679443359375,1.02386474609375,2.953338623046875,-1.77947998046875,-4.486083984375,1,1.0,1.0,1.0,1.0,95.00
2021-10-15 00:03:24.933,0.77920955,0.46339202,1.111904,0.3455733,0.4949001,0.7516512,0.5278268,0.39910704,1.0758218,1.0370752,0.731992,0.77050406,0.66991365,0.972695,0.5175664,0.6529738,0.5605857,0.7659075,-0.07871225,0.6314177,866.30035,870.32965,801.02563,808.2784,699.0842,0.01446533203125,0.018798828125,1.01251220703125,6.68426513671875,-4.912261962890625,-2.773895263671875,1,1.0,4.0,1.0,1.0,95.00
2021-10-15 00:03:25.462,0.9172714,0.46339202,0.6521957,0.57339627,0.6869678,0.7516512,0.42526886,0.7050687,1.1468896,1.0370752,0.4380594,1.0830212,0.7132893,0.972695,0.57823294,0.7512503,0.49160865,0.7659075,-0.011267718,0.66914123,855.42126,827.619,800.6227,824.7985,822.381,0.010009765625,0.02294921875,1.02410888671875,4.605712890625,-1.973876953125,-2.594451904296875,1,1.0,1.0,1.0,1.0,95.00
2021-10-15 00:03:25.966,0.9989634,0.46339202,0.6521957,0.77844745,0.7622469,0.7516512,0.42526886,0.857812,0.9953664,1.0370752,0.4380594,1.0967361,0.7120195,0.972695,0.57823294,0.83112836,0.49205327,0.7659075,-0.011267718,0.66138375,904.9817,907.8022,790.14655,844.5421,790.54944,0.015625,0.02569580078125,1.00628662109375,3.4991455078125,-3.730926513671875,-1.816864013671875,1,1.0,1.0,1.0,1.0,95.00
2021-10-15 00:03:26.036,,,,,,,,,,,,,,,,,,,,,,,,,,,,,,,,,,,,,,/muse/elements/blink
2021-10-15 00:03:26.497,1.161666,0.46339202,0.6739013,0.9572387,0.91945165,0.7516512,0.47696608,0.9999539,0.9925323,1.0370752,0.43749464,1.0967361,0.73846304,0.972695,0.6135027,0.8746246,0.5504452,0.7659075,0.011867846,0.7038326,733.73627,773.6264,780.07324,776.04395,566.52014,0.03826904296875,0.02130126953125,0.99688720703125,8.217010498046875,-7.22259521484375,-4.65057373046875,1,1.0,1.0,1.0,1.0,95.00
2021-10-15 00:03:27.015,1.2588936,0.46339202,0.6739013,1.0733224,0.9445906,0.7516512,0.47696608,1.0297128,0.95797825,1.0370752,0.43749464,0.95317423,0.73684424,0.972695,0.6135027,0.85601056,0.60059404,0.7659075,0.011867846,0.78087604,840.5128,832.8571,799.011,820.7692,770.80585,-0.0159912109375,0.04742431640625,1.032958984375,10.475006103515625,-13.577880859375,11.6339111328125,1,1.0,1.0,1.0,1.0,95.00
2021-10-15 00:03:27.531,1.2588936,0.46339202,0.7156181,1.0733224,0.9445906,0.7516512,0.15303077,1.0297128,0.95797825,1.0370752,0.5979638,0.95317423,0.73684424,0.972695,0.53674436,0.85601056,0.60059404,0.7659075,-0.0044370126,0.78087604,817.5458,841.31866,803.0403,810.696,733.3333,0.00390625,0.0316162109375,0.993896484375,3.18511962890625,1.86920166015625,-7.8057861328125,1,1.0,1.0,1.0,1.0,95.00
2021-10-15 00:03:28.035,0.5243748,0.46339202,0.7122138,0.9544237,0.43222392,0.7516512,0.13792664,0.6287041,0.6215424,1.0370752,0.6026944,0.5978419,0.755741,0.972695,0.5262848,0.719466,0.4446368,0.7659075,0.003242723,0.5881533,821.978,797.8022,813.91943,798.20514,796.5934,0.02978515625,0.00146484375,1.024169921875,3.45428466796875,-3.1103515625,-2.938385009765625,1,1.0,1.0,1.0,1.0,95.00
2021-10-15 00:03:28.571,0.4590568,0.46339202,1.031192,0.85588235,0.3560267,0.7516512,0.58358,0.48401195,0.8056729,1.0370752,1.0440017,0.59919286,0.6476316,0.972695,0.5762374,0.67361784,0.65038425,0.7659075,0.019733168,0.5236435,847.76556,802.23444,791.3553,794.9817,747.4359,-0.01312255859375,0.018798828125,1.00177001953125,6.56463623046875,-3.043060302734375,-3.4393310546875,1,1.0,4.0,1.0,1.0,95.00
2021-10-15 00:03:29.090,0.6211106,0.46339202,1.2120249,0.5790224,0.29886144,0.7516512,0.7954836,0.21547565,0.86518717,1.0370752,1.0222296,0.48627502,0.58192194,0.972695,0.61243653,0.63576156,0.529586,0.7659075,0.042628806,0.4190648,804.2491,790.9524,771.6117,784.5055,658.3883,0.01727294921875,-0.00811767578125,1.0050048828125,2.549591064453125,-8.306732177734375,-0.4486083984375,1,1.0,1.0,1.0,1.0,95.00
2021-10-15 00:03:29.598,0.6761657,0.46339202,1.0828341,0.65251637,0.21594162,0.7516512,1.0599159,0.111436725,0.82750064,1.0370752,1.0396698,0.40731725,0.47217375,0.972695,0.48123372,0.5707242,0.53818464,0.7659075,0.22866747,0.24366094,888.46155,792.5641,809.0842,861.4652,882.4176,0.00274658203125,-0.03692626953125,1.02301025390625,11.252593994140625,-13.53302001953125,-14.916229248046875,1,1.0,1.0,1.0,1.0,95.00
2021-10-15 00:03:29.897,,,,,,,,,,,,,,,,,,,,,,,,,,,,,,,,,,,,,,/muse/elements/blink
2021-10-15 00:03:30.103,0.787585,0.46339202,0.82472354,0.6668179,0.1959243,0.7516512,0.9927945,0.19626541,0.72892886,1.0370752,0.88532794,0.36342564,0.45985627,0.972695,0.43499073,0.5933757,0.24473436,0.7659075,0.19282937,0.17957361,762.74725,809.4872,815.5311,785.31134,679.7436,0.0843505859375,0.08563232421875,1.0009765625,4.807586669921875,-10.96099853515625,-32.127838134765625,1,1.0,1.0,1.0,1.0,95.00
2021-10-15 00:03:30.629,0.87178755,0.46339202,0.88403904,0.7698183,0.28944162,0.7516512,1.0030524,0.27296445,0.65451837,1.0370752,0.89829224,0.3213345,0.48255458,0.972695,0.4394776,0.6579364,0.19003619,0.7659075,0.15250337,0.22541362,771.6117,883.6264,861.8681,743.8095,725.6777,0.1533203125,0.06231689453125,1.0560302734375,9.772186279296875,16.209716796875,61.60888671875,1,1.0,1.0,1.0,1.0,95.00
2021-10-15 00:03:30.736,,,,,,,,,,,,,,,,,,,,,,,,,,,,,,,,,,,,,,/muse/elements/blink
2021-10-15 00:03:31.171,0.87178755,0.46339202,0.91179067,0.7698183,0.28944162,0.7516512,0.96504474,0.27296445,0.65451837,1.0370752,0.86841154,0.3213345,0.48255458,0.972695,0.47177327,0.6579364,0.19003619,0.7659075,0.05614989,0.22541362,809.0842,827.2161,806.26373,810.293,920.293,-0.1412353515625,0.01544189453125,1.02935791015625,3.686065673828125,12.2320556640625,-1.697235107421875,1,1.0,1.0,1.0,1.0,95.00
2021-10-15 00:03:31.684,0.87178755,0.46339202,0.9415198,0.7698183,0.28944162,0.7516512,0.98255664,0.27296445,0.65451837,1.0370752,0.7933509,0.3213345,0.48255458,0.972695,0.46235996,0.6579364,0.19003619,0.7659075,-0.038682878,0.22541362,747.4359,811.50183,784.10254,797.3993,755.4945,0.095947265625,0.02587890625,1.00860595703125,9.8394775390625,-15.5517578125,-2.459869384765625,1,1.0,1.0,1.0,1.0,95.00
2021-10-15 00:03:32.197,0.87178755,0.46339202,0.9415198,0.7698183,0.28944162,0.7516512,0.98255664,0.27296445,0.65451837,1.0370752,0.7933509,0.3213345,0.48255458,0.972695,0.46235996,0.6579364,0.19003619,0.7659075,-0.038682878,0.22541362,809.4872,812.3077,853.8095,792.96704,801.4286,0.052001953125,0.0174560546875,0.987060546875,5.5328369140625,-1.495361328125,-1.084136962890625,1,2.0,1.0,1.0,2.0,95.00
2021-10-15 00:03:32.713,0.87178755,0.46339202,0.9415198,0.7698183,0.28944162,0.7516512,0.98255664,0.27296445,0.65451837,1.0370752,0.7933509,0.3213345,0.48255458,0.972695,0.46235996,0.6579364,0.19003619,0.7659075,-0.038682878,0.22541362,821.978,899.7436,843.73627,766.77655,846.55676,0.02264404296875,0.053955078125,1.06494140625,7.514190673828125,-3.99261474609375,-11.207733154296875,1,2.0,1.0,1.0,2.0,95.00
2021-10-15 00:03:33.221,0.87178755,0.46339202,0.9415198,0.7698183,0.28944162,0.7516512,0.98255664,0.27296445,0.65451837,1.0370752,0.7933509,0.3213345,0.48255458,0.972695,0.46235996,0.6579364,0.19003619,0.7659075,-0.038682878,0.22541362,823.1868,842.9304,814.3223,794.57874,657.98535,-0.01068115234375,0.08563232421875,1.035400390625,6.23565673828125,3.880462646484375,-2.452392578125,1,2.0,1.0,1.0,2.0,95.00
2021-10-15 00:03:33.629,,,,,,,,,,,,,,,,,,,,,,,,,,,,,,,,,,,,,,/muse/elements/blink
2021-10-15 00:03:33.733,0.87178755,0.46339202,0.9415198,0.7698183,0.28944162,0.7516512,0.98255664,0.27296445,0.65451837,1.0370752,0.7933509,0.3213345,0.48255458,0.972695,0.46235996,0.6579364,0.19003619,0.7659075,-0.038682878,0.22541362,801.02563,764.35895,784.10254,834.4689,917.47253,9.765625E-4,0.00115966796875,1.04229736328125,12.979736328125,24.561309814453125,-7.663726806640625,1,2.0,1.0,1.0,2.0,95.00
2021-10-15 00:03:34.265,1.463518,0.46339202,0.9415198,0.7698183,1.3742523,0.7516512,0.98255664,0.27296445,1.2961255,1.0370752,0.7933509,0.3213345,0.679266,0.972695,0.46235996,0.6579364,0.33258387,0.7659075,-0.038682878,0.22541362,640.65936,946.4835,804.65204,637.4359,770.40295,-0.00494384765625,0.01104736328125,0.991455078125,9.861907958984375,9.70489501953125,-1.353302001953125,1,1.0,1.0,1.0,1.0,95.00
2021-10-15 00:03:34.419,,,,,,,,,,,,,,,,,,,,,,,,,,,,,,,,,,,,,,/muse/elements/blink
2021-10-15 00:03:34.777,1.463518,0.46339202,0.9415198,0.7698183,1.3742523,0.7516512,0.98255664,0.27296445,1.2961255,1.0370752,0.7933509,0.3213345,0.679266,0.972695,0.46235996,0.6579364,0.33258387,0.7659075,-0.038682878,0.22541362,738.5714,759.92676,815.12823,782.49084,653.1502,-0.02490234375,0.0020751953125,1.08502197265625,11.3348388671875,-22.841644287109375,6.83380126953125,1,1.0,1.0,1.0,1.0,95.00
2021-10-15 00:03:35.186,,,,,,,,,,,,,,,,,,,,,,,,,,,,,,,,,,,,,,/muse/elements/blink
2021-10-15 00:03:35.291,1.463518,0.46339202,0.9415198,0.7698183,1.3742523,0.7516512,0.98255664,0.27296445,1.2961255,1.0370752,0.7933509,0.3213345,0.679266,0.972695,0.46235996,0.6579364,0.33258387,0.7659075,-0.038682878,0.22541362,814.3223,709.5604,748.24176,813.91943,1222.0879,0.06561279296875,0.0047607421875,1.01043701171875,8.261871337890625,-8.979644775390625,-5.914154052734375,1,1.0,1.0,1.0,1.0,95.00
2021-10-15 00:03:35.809,1.1784217,0.46339202,0.9415198,0.7698183,1.7184137,0.7516512,0.98255664,0.27296445,0.90786237,1.0370752,0.7933509,0.3213345,0.5754493,0.972695,0.46235996,0.6579364,0.36674887,0.7659075,-0.038682878,0.22541362,830.0366,772.4176,797.8022,801.02563,772.8205,-5.4931640625E-4,0.0335693359375,1.02362060546875,3.955230712890625,0.0897216796875,-4.957122802734375,1,1.0,1.0,1.0,1.0,95.00
2021-10-15 00:03:36.313,1.3527836,0.46339202,0.9415198,1.4172021,1.6586291,0.7516512,0.98255664,1.7103177,1.0204793,1.0370752,0.7933509,1.0304358,0.7661952,0.972695,0.46235996,0.70009273,0.47651696,0.7659075,-0.038682878,0.57580554,859.45056,805.8608,782.49084,813.1135,811.0989,-0.01129150390625,0.01263427734375,1.015380859375,10.594635009765625,5.802001953125,5.031890869140625,1,1.0,1.0,1.0,1.0,95.00
2021-10-15 00:03:36.825,1.338302,0.46339202,0.9415198,1.3871471,1.4591913,0.7516512,0.98255664,1.6445085,1.0204793,1.0370752,0.7933509,1.0304358,0.78305155,0.972695,0.46235996,0.69590396,0.37760633,0.7659075,-0.038682878,0.578468,823.5897,783.2967,793.7729,822.381,928.3516,-0.12164306640625,0.0501708984375,0.97705078125,10.27313232421875,-3.656158447265625,3.865509033203125,1,1.0,1.0,1.0,1.0,95.00
2021-10-15 00:03:37.346,1.3760163,0.46339202,0.9415198,1.2438164,1.1626343,0.7516512,0.98255664,1.2161973,1.0105857,1.0370752,0.7933509,0.9843521,0.8361434,0.972695,0.46235996,0.6713651,0.35215935,0.7659075,-0.038682878,0.42812237,685.38464,949.304,807.47253,681.3553,594.7253,-0.0250244140625,0.05108642578125,1.021240234375,5.0543212890625,-4.6954345703125,-4.964599609375,1,1.0,1.0,1.0,1.0,95.00
2021-10-15 00:03:37.510,,,,,,,,,,,,,,,,,,,,,,,,,,,,,,,,,,,,,,/muse/elements/blink
2021-10-15 00:03:37.859,1.3019522,0.46339202,0.9415198,1.0269685,0.70668983,0.7516512,0.98255664,0.737874,0.62798494,1.0370752,0.7933509,0.50472033,0.7859498,0.972695,0.46235996,0.6647427,0.18973011,0.7659075,-0.038682878,0.33070296,786.9231,853.00366,1359.0842,831.2454,782.0879,0.0032958984375,0.02960205078125,0.9990234375,4.14215087890625,-6.033782958984375,-4.658050537109375,1,1.0,1.0,1.0,1.0,95.00
2021-10-15 00:03:38.380,1.328019,0.46339202,0.9415198,0.972596,0.7113678,0.7516512,0.98255664,0.68391657,0.6190277,1.0370752,0.7933509,0.4968384,0.7888764,0.972695,0.46235996,0.662312,0.20369163,0.7659075,-0.038682878,0.23063076,740.18317,820.3663,898.93774,789.7436,700.696,0.0440673828125,-0.05657958984375,0.9979248046875,3.461761474609375,-20.3668212890625,-16.3592529296875,1,1.0,1.0,1.0,1.0,95.00
2021-10-15 00:03:38.893,1.328019,0.46339202,0.9415198,0.972596,0.7113678,0.7516512,0.98255664,0.68391657,0.6190277,1.0370752,0.7933509,0.4968384,0.7888764,0.972695,0.46235996,0.662312,0.20369163,0.7659075,-0.038682878,0.23063076,864.2857,667.6557,961.39197,817.1429,718.4249,-0.00103759765625,-0.02960205078125,0.9635009765625,7.274932861328125,-12.299346923828125,-0.755157470703125,1,1.0,1.0,1.0,1.0,95.00
2021-10-15 00:03:39.395,1.328019,0.46339202,0.9415198,0.972596,0.7113678,0.7516512,0.98255664,0.68391657,0.6190277,1.0370752,0.7933509,0.4968384,0.7888764,0.972695,0.46235996,0.662312,0.20369163,0.7659075,-0.038682878,0.23063076,837.6923,850.18317,788.1319,825.6044,846.9597,0.02978515625,-0.028076171875,1.05377197265625,9.58526611328125,1.233673095703125,-14.527435302734375,1,1.0,1.0,1.0,1.0,95.00
2021-10-15 00:03:39.919,1.328019,0.46339202,0.9415198,1.0887638,0.7113678,0.7516512,0.98255664,1.3016673,0.6190277,1.0370752,0.7933509,1.3817607,0.7888764,0.972695,0.46235996,1.0589201,0.20369163,0.7659075,-0.038682878,0.83546484,821.978,1143.1135,920.293,790.9524,678.5348,0.06927490234375,-0.0325927734375,1.03765869140625,1.57012939453125,-8.321685791015625,-9.390869140625,1,1.0,1.0,1.0,1.0,95.00
2021-10-15 00:03:40.399,,,,,,,,,,,,,,,,,,,,,,,,,,,,,,,,,,,,,,/muse/elements/blink
2021-10-15 00:03:40.424,1.328019,0.46339202,0.9415198,1.0887638,0.7113678,0.7516512,0.98255664,1.3016673,0.6190277,1.0370752,0.7933509,1.3817607,0.7888764,0.972695,0.46235996,1.0589201,0.20369163,0.7659075,-0.038682878,0.83546484,857.4359,884.43225,936.8132,823.9927,704.3223,0.0567626953125,0.02496337890625,1.04193115234375,8.83758544921875,-1.562652587890625,-8.4637451171875,1,1.0,1.0,1.0,1.0,95.00
2021-10-15 00:03:40.926,1.328019,0.46339202,0.9415198,1.0630322,0.7113678,0.7516512,0.98255664,1.2934324,0.6190277,1.0370752,0.7933509,1.381656,0.7888764,0.972695,0.46235996,0.99149317,0.20369163,0.7659075,-0.038682878,0.7737918,802.23444,754.68866,765.16486,779.67035,759.12085,-0.107421875,-0.03363037109375,1.013916015625,2.100982666015625,14.946136474609375,-5.151519775390625,1,1.0,1.0,1.0,1.0,95.00
2021-10-15 00:03:41.445,1.328019,0.46339202,0.9415198,1.0630322,0.7113678,0.7516512,0.98255664,1.2934324,0.6190277,1.0370752,0.7933509,1.381656,0.7888764,0.972695,0.46235996,0.99149317,0.20369163,0.7659075,-0.038682878,0.7737918,772.8205,857.4359,821.5751,786.1172,701.50183,-0.08856201171875,-0.00848388671875,1.01214599609375,13.151702880859375,7.065582275390625,7.230072021484375,1,1.0,1.0,1.0,1.0,95.00
2021-10-15 00:03:41.957,1.328019,0.46339202,0.9415198,1.0630322,0.7113678,0.7516512,0.98255664,1.2934324,0.6190277,1.0370752,0.7933509,1.381656,0.7888764,0.972695,0.46235996,0.99149317,0.20369163,0.7659075,-0.038682878,0.7737918,805.4579,842.9304,797.8022,803.8461,673.69965,-0.00994873046875,0.020751953125,1.05303955078125,7.633819580078125,-10.908660888671875,-1.173858642578125,1,1.0,1.0,1.0,1.0,95.00
2021-10-15 00:03:42.479,1.0847766,0.46339202,0.9415198,0.6482623,0.88316387,0.7516512,0.98255664,0.78494436,0.67980474,1.0370752,0.7933509,0.51470596,0.659311,0.972695,0.46235996,0.75206196,0.5789437,0.7659075,-0.038682878,0.113378316,766.77655,888.86444,809.4872,789.7436,704.7253,-0.0045166015625,-0.00885009765625,1.01507568359375,5.0543212890625,-12.48626708984375,-2.73651123046875,1,1.0,1.0,1.0,1.0,95.00
2021-10-15 00:03:42.912,,,,,,,,,,,,,,,,,,,,,,,,,,,,,,,,,,,,,,/muse/elements/blink
2021-10-15 00:03:43.010,1.1372281,0.46339202,0.9415198,1.153348,0.88487405,0.7516512,0.98255664,1.0023457,0.71233803,1.0370752,0.7933509,1.3558694,0.656145,0.972695,0.46235996,0.80723274,0.5787107,0.7659075,-0.038682878,0.26761916,730.5128,938.8278,817.1429,754.68866,645.09155,-0.08917236328125,-0.0147705078125,0.9840087890625,5.203857421875,-26.699676513671875,1.772003173828125,1,1.0,1.0,1.0,1.0,95.00
2021-10-15 00:03:43.542,1.1382742,0.46339202,0.9415198,1.4354486,0.8159904,0.7516512,0.98255664,1.2710569,0.7023806,1.0370752,0.7933509,1.4778348,0.6722216,0.972695,0.46235996,0.9537466,0.59418017,0.7659075,-0.038682878,0.38443056,740.18317,889.67035,774.83514,796.1905,825.2015,-0.0042724609375,0.021240234375,1.02093505859375,5.69732666015625,-1.831817626953125,-0.590667724609375,1,1.0,4.0,1.0,1.0,95.00
2021-10-15 00:03:44.064,1.1414334,0.46339202,0.9415198,1.4474885,0.8001911,0.7516512,0.98255664,1.240165,0.59781027,1.0370752,0.7933509,1.4778348,0.6917515,0.972695,0.46235996,0.9337303,0.60373336,0.7659075,-0.038682878,0.43485284,818.3516,775.2381,778.86444,821.1722,789.7436,-0.02435302734375,-0.0301513671875,1.012451171875,2.624359130859375,-3.058013916015625,-17.54058837890625,1,1.0,2.0,1.0,1.0,95.00
2021-10-15 00:03:44.417,,,,,,,,,,,,,,,,,,,,,,,,,,,,,,,,,,,,,,/muse/elements/blink
2021-10-15 00:03:44.577,1.0279213,0.46339202,0.9415198,1.4506702,0.67094964,0.7516512,0.98255664,1.2355741,1.1138551,1.0370752,0.7933509,1.4650152,1.0133214,0.972695,0.46235996,0.9501436,0.55372405,0.7659075,-0.038682878,0.459238,836.8865,711.1722,731.31866,854.21246,699.4872,-0.1026611328125,-0.008544921875,1.0545654296875,13.0096435546875,11.76849365234375,-0.456085205078125,1,1.0,2.0,1.0,1.0,95.00
2021-10-15 00:03:44.583,,,,,,,,,,,,,,,,,,,,,,,,,,,,,,,,,,,,,,/muse/elements/blink
2021-10-15 00:03:45.090,1.0279213,0.46339202,0.9415198,1.1526163,0.67094964,0.7516512,0.98255664,0.55964804,1.1138551,1.0370752,0.7933509,0.5531324,1.0133214,0.972695,0.46235996,0.74277323,0.55372405,0.7659075,-0.038682878,0.5007295,806.26373,779.67035,771.2088,781.685,906.1905,-0.00439453125,-0.03106689453125,1.01776123046875,24.396820068359375,-14.84893798828125,22.482757568359375,1,1.0,2.0,1.0,1.0,95.00
2021-10-15 00:03:45.206,,,,,,,,,,,,,,,,,,,,,,,,,,,,,,,,,,,,,,/muse/elements/blink
2021-10-15 00:03:45.614,0.9423812,0.46339202,0.9415198,1.1526163,0.6574505,0.7516512,0.98255664,0.55964804,1.1138551,1.0370752,0.7933509,0.5531324,1.0420744,0.972695,0.46235996,0.74277323,0.55135334,0.7659075,-0.038682878,0.5007295,823.9927,778.86444,791.3553,819.15753,714.7985,-0.01190185546875,0.02215576171875,0.9971923828125,9.0618896484375,-3.357086181640625,3.252410888671875,1,1.0,2.0,1.0,1.0,95.00
2021-10-15 00:03:46.130,0.9423812,0.46339202,0.9415198,1.1526163,0.6574505,0.7516512,0.98255664,0.55964804,1.1138551,1.0370752,0.7933509,0.5531324,1.0420744,0.972695,0.46235996,0.74277323,0.55135334,0.7659075,-0.038682878,0.5007295,720.84247,817.5458,788.93774,768.3883,770.0,-0.02667236328125,0.03509521484375,1.00762939453125,7.454376220703125,-6.676788330078125,2.13836669921875,1,1.0,1.0,1.0,1.0,95.00
2021-10-15 00:03:46.665,0.9423812,0.46339202,0.9415198,1.1526163,0.6574505,0.7516512,0.98255664,0.55964804,1.1138551,1.0370752,0.7933509,0.5531324,1.0420744,0.972695,0.46235996,0.74277323,0.55135334,0.7659075,-0.038682878,0.5007295,845.34796,883.6264,552.8205,815.12823,850.989,-0.0079345703125,0.04022216796875,1.02337646484375,6.9683837890625,-5.12908935546875,-1.33087158203125,1,1.0,1.0,1.0,1.0,95.00
2021-10-15 00:03:47.194,0.8360186,0.46339202,0.9415198,0.81664836,0.4792317,0.7516512,0.98255664,0.5733725,0.351634,1.0370752,0.7933509,0.72549325,0.6094582,0.972695,0.46235996,0.8832006,0.59033686,0.7659075,-0.038682878,0.71330494,730.9158,829.2308,818.3516,776.04395,640.65936,-0.0126953125,0.05328369140625,1.015869140625,5.6524658203125,-3.5589599609375,-2.908477783203125,1,1.0,1.0,1.0,1.0,95.00
2021-10-15 00:03:47.725,0.92819864,0.46339202,0.9415198,0.9200941,0.7705538,0.7516512,0.98255664,0.9011013,0.43766943,1.0370752,0.7933509,0.7452288,0.66958535,0.972695,0.46235996,0.8752367,0.46545193,0.7659075,-0.038682878,0.5972511,842.1245,840.5128,826.8132,807.8755,862.27106,-0.0150146484375,0.05767822265625,1.0208740234375,5.630035400390625,-2.79632568359375,-1.727142333984375,1,1.0,1.0,1.0,1.0,100.00
2021-10-15 00:03:48.261,0.846516,0.46339202,0.9415198,0.8461143,0.7174883,0.7516512,0.98255664,0.8037732,0.59906274,1.0370752,0.7933509,0.77405834,0.60186523,0.972695,0.46235996,0.78669757,0.36979905,0.7659075,-0.038682878,0.48545977,791.75824,988.7912,774.83514,801.4286,670.07324,-0.0162353515625,0.0517578125,1.0142822265625,5.226287841796875,-8.5235595703125,-0.381317138671875,1,1.0,1.0,1.0,1.0,100.00
2021-10-15 00:03:48.793,0.9452627,0.46339202,1.1618237,0.8000185,0.8366476,0.7516512,0.68170804,0.79315835,0.655465,1.0370752,0.89640594,0.9803306,0.64908093,0.972695,0.38236192,0.66956586,0.35105994,0.7659075,0.051967725,0.35528424,786.52014,759.5238,733.3333,776.4469,842.9304,0.07861328125,0.0712890625,1.044921875,3.596343994140625,15.67138671875,2.6318359375,1,1.0,1.0,1.0,1.0,100.00
2021-10-15 00:03:49.327,1.0171729,0.46339202,1.1618237,0.68383735,0.86895263,0.7516512,0.68170804,0.65348077,0.9553054,1.0370752,0.89640594,1.0475655,0.6467316,0.972695,0.38236192,0.6199249,0.379216,0.7659075,0.051967725,0.35184786,738.5714,772.8205,819.9634,787.326,933.1868,-0.02166748046875,0.0748291015625,1.0078125,7.977752685546875,-2.385101318359375,2.026214599609375,1,1.0,1.0,1.0,1.0,100.00
2021-10-15 00:03:49.844,1.2031796,0.46339202,1.1618237,0.78622633,1.0442168,0.7516512,0.68170804,0.7569226,0.9947757,1.0370752,0.89640594,1.0695784,0.88279593,0.972695,0.38236192,0.80467236,0.43958423,0.7659075,0.051967725,0.4220756,821.1722,792.5641,785.31134,785.7143,556.8498,0.0469970703125,0.0517578125,1.04144287109375,1.338348388671875,6.74407958984375,-10.40771484375,1,1.0,1.0,1.0,1.0,100.00
2021-10-15 00:03:50.356,1.0204382,0.46339202,1.1618237,0.7701931,0.9022099,0.7516512,0.68170804,0.7294793,0.9947757,1.0370752,0.89640594,0.8900939,0.8090433,0.972695,0.38236192,0.84502226,0.32004777,0.7659075,0.051967725,0.47018367,739.7802,808.68134,826.0073,772.4176,701.50183,0.077880859375,0.04718017578125,1.02227783203125,11.013336181640625,23.4771728515625,-13.0694580078125,1,1.0,1.0,1.0,1.0,100.00
2021-10-15 00:03:50.860,0.7876587,0.46339202,1.1618237,0.7045829,0.67267513,0.7516512,0.68170804,0.62124914,0.9517302,1.0370752,0.89640594,0.7656033,0.7722449,0.972695,0.38236192,0.90682447,0.35296917,0.7659075,0.051967725,0.5805614,833.663,790.9524,788.93774,838.0952,617.6923,0.089111328125,-0.0072021484375,1.007568359375,6.916046142578125,-13.121795654296875,-3.0206298828125,1,1.0,1.0,1.0,1.0,100.00
2021-10-15 00:03:51.370,0.9799024,0.46339202,1.1618237,0.6899311,0.8653773,0.7516512,0.68170804,0.6883625,0.8276148,1.0370752,0.89640594,0.7034751,0.65263724,0.972695,0.38236192,0.8985102,0.44587463,0.7659075,0.051967725,0.6244827,813.91943,776.4469,810.293,805.8608,893.69965,0.12652587890625,0.0078125,1.02374267578125,5.69732666015625,5.263671875,-3.401947021484375,1,1.0,1.0,1.0,1.0,100.00
2021-10-15 00:03:51.892,1.326178,0.46339202,1.1618237,0.96198374,1.214143,0.7516512,0.68170804,1.0676199,1.0978211,1.0370752,0.89640594,1.0969406,0.6620638,0.972695,0.38236192,0.8709157,0.54178125,0.7659075,0.051967725,0.62460744,775.2381,816.337,802.6374,798.60803,757.9121,0.095947265625,0.0128173828125,1.0181884765625,9.607696533203125,-2.37762451171875,-0.777587890625,1,1.0,1.0,1.0,1.0,100.00
2021-10-15 00:03:52.399,1.4963815,0.46339202,1.1586112,1.2908038,1.3959264,0.7516512,1.0587039,1.1523099,1.0978211,1.0370752,1.0391967,1.0952196,0.62327117,0.972695,0.75574744,0.6397669,0.60343224,0.7659075,0.009577934,0.49747708,807.0696,864.2857,783.2967,794.17584,637.4359,0.05841064453125,0.02850341796875,1.01580810546875,5.33843994140625,-2.415008544921875,-5.091705322265625,1,1.0,1.0,1.0,1.0,100.00
2021-10-15 00:03:52.904,1.4713038,0.46339202,1.2896892,1.331867,1.3718712,0.7516512,1.0566099,1.1592638,1.0978211,1.0370752,1.0391967,1.0952196,0.7071331,0.972695,0.65768903,0.59603673,0.52446824,0.7659075,-0.061648797,0.5021206,743.00366,793.36993,786.9231,800.2198,699.4872,0.0426025390625,0.03076171875,1.019775390625,5.51788330078125,-1.2261962890625,-3.790740966796875,1,1.0,1.0,1.0,1.0,100.00
2021-10-15 00:03:53.438,0.548383,0.46339202,1.2196244,1.1454142,0.22813514,0.7516512,1.0176728,0.62467545,0.7600689,1.0370752,0.9767533,0.66762906,0.67463464,0.972695,0.56283045,0.61579055,0.20749758,0.7659075,-0.06821878,0.38615832,776.4469,770.0,778.86444,799.41394,868.315,0.03668212890625,0.03277587890625,1.017578125,5.360870361328125,-6.56463623046875,-5.3533935546875,1,1.0,1.0,1.0,1.0,100.00
2021-10-15 00:03:53.896,,,,,,,,,,,,,,,,,,,,,,,,,,,,,,,,,,,,,,/muse/elements/blink
2021-10-15 00:03:53.951,0.6363682,0.46339202,1.274827,0.6696967,0.3349897,0.7516512,0.98868084,0.40995154,0.7912008,1.0370752,0.68645066,0.53312284,0.7493791,0.972695,0.42797202,0.71101946,0.21602744,0.7659075,-0.13320236,0.34181857,833.663,729.304,834.0659,819.15753,691.8315,0.3712158203125,0.00677490234375,0.961669921875,16.785430908203125,-13.839569091796875,-38.92425537109375,1,1.0,1.0,1.0,1.0,100.00
2021-10-15 00:03:54.357,,,,,,,,,,,,,,,,,,,,,,,,,,,,,,,,,,,,,,/muse/elements/blink
2021-10-15 00:03:54.482,0.6766773,0.46339202,1.012013,0.6408582,0.38019755,0.7516512,0.92855805,0.31071427,0.65465873,1.0370752,0.37207034,0.49319646,0.71843266,0.972695,0.30175325,0.6468207,0.20778799,0.7659075,-0.084443554,0.28892875,898.93774,753.0769,780.4762,890.07324,718.4249,-0.005126953125,-5.4931640625E-4,0.95947265625,19.835968017578125,34.550323486328125,109.22119140625,1,1.0,1.0,1.0,1.0,100.00
2021-10-15 00:03:55.005,0.79746175,0.46339202,1.012013,0.416841,0.48016486,0.7516512,0.92855805,0.34575954,0.65465873,1.0370752,0.37207034,0.48000464,0.84848064,0.972695,0.30175325,0.68203956,0.23313898,0.7659075,-0.084443554,0.20793721,782.8938,558.86444,918.2784,800.2198,683.7729,-0.053466796875,0.0205078125,1.0242919921875,3.72344970703125,-6.29547119140625,-48.22540283203125,1,1.0,1.0,1.0,1.0,100.00
2021-10-15 00:03:55.518,0.79746175,0.46339202,1.012013,0.416841,0.48016486,0.7516512,0.92855805,0.34575954,0.65465873,1.0370752,0.37207034,0.48000464,0.84848064,0.972695,0.30175325,0.68203956,0.23313898,0.7659075,-0.084443554,0.20793721,834.87177,631.79486,909.41394,819.15753,665.2381,-0.1641845703125,0.19696044921875,0.9820556640625,5.66741943359375,20.69580078125,13.121795654296875,1,1.0,1.0,1.0,1.0,100.00
2021-10-15 00:03:56.039,0.79746175,0.46339202,1.012013,0.416841,0.48016486,0.7516512,0.92855805,0.34575954,0.65465873,1.0370752,0.37207034,0.48000464,0.84848064,0.972695,0.30175325,0.68203956,0.23313898,0.7659075,-0.084443554,0.20793721,774.43225,853.4066,1040.7693,803.8461,792.96704,-0.14044189453125,0.144775390625,1.00433349609375,8.740386962890625,-7.7459716796875,19.81353759765625,1,1.0,1.0,1.0,1.0,100.00
2021-10-15 00:03:56.550,0.79746175,0.46339202,1.012013,0.416841,0.48016486,0.7516512,0.92855805,0.34575954,0.65465873,1.0370752,0.37207034,0.48000464,0.84848064,0.972695,0.30175325,0.68203956,0.23313898,0.7659075,-0.084443554,0.20793721,912.23444,0.0,910.2198,818.7546,695.4579,-0.12615966796875,0.06988525390625,1.06024169921875,-8.411407470703125,-6.59454345703125,-12.27691650390625,1,2.0,4.0,1.0,2.0,100.00
2021-10-15 00:03:57.019,,,,,,,,,,,,,,,,,,,,,,,,,,,,,,,,,,,,,,/muse/elements/blink
2021-10-15 00:03:57.071,0.79746175,0.46339202,1.012013,0.416841,0.48016486,0.7516512,0.92855805,0.34575954,0.65465873,1.0370752,0.37207034,0.48000464,0.84848064,0.972695,0.30175325,0.68203956,0.23313898,0.7659075,-0.084443554,0.20793721,790.9524,782.8938,780.07324,805.8608,979.92676,-0.0633544921875,-0.02374267578125,1.03515625,-6.153411865234375,-2.145843505859375,-16.576080322265625,1,2.0,4.0,1.0,2.0,100.00
2021-10-15 00:03:57.603,0.79746175,0.46339202,1.012013,0.416841,0.48016486,0.7516512,0.92855805,0.34575954,0.65465873,1.0370752,0.37207034,0.48000464,0.84848064,0.972695,0.30175325,0.68203956,0.23313898,0.7659075,-0.084443554,0.20793721,774.83514,821.978,813.91943,796.1905,836.8865,-0.05059814453125,0.00421142578125,1.001953125,7.29736328125,-5.854339599609375,2.878570556640625,1,2.0,1.0,1.0,2.0,100.00
2021-10-15 00:03:58.134,0.79746175,0.46339202,1.012013,0.416841,0.48016486,0.7516512,0.92855805,0.34575954,0.65465873,1.0370752,0.37207034,0.48000464,0.84848064,0.972695,0.30175325,0.68203956,0.23313898,0.7659075,-0.084443554,0.20793721,817.9487,830.84247,784.10254,819.9634,693.0403,-0.01025390625,3.0517578125E-4,1.02215576171875,7.873077392578125,-4.9346923828125,-4.18701171875,1,2.0,4.0,1.0,2.0,95.00
2021-10-15 00:03:58.535,,,,,,,,,,,,,,,,,,,,,,,,,,,,,,,,,,,,,,/muse/elements/blink
2021-10-15 00:03:58.655,0.79746175,0.46339202,1.012013,0.416841,0.48016486,0.7516512,0.92855805,0.34575954,0.65465873,1.0370752,0.37207034,0.48000464,0.84848064,0.972695,0.30175325,0.68203956,0.23313898,0.7659075,-0.084443554,0.20793721,709.15753,715.6044,803.0403,786.9231,908.20514,0.01953125,0.0185546875,0.9927978515625,4.643096923828125,-2.175750732421875,26.67724609375,1,2.0,4.0,1.0,2.0,95.00
2021-10-15 00:03:59.171,1.4190942,0.46339202,1.012013,0.416841,1.4553659,0.7516512,0.92855805,0.34575954,1.444365,1.0370752,0.37207034,0.48000464,1.0286188,0.972695,0.30175325,0.68203956,0.72064817,0.7659075,-0.084443554,0.20793721,733.3333,810.293,732.1245,790.9524,686.99634,-0.01629638671875,0.03668212890625,1.01495361328125,7.095489501953125,-4.239349365234375,-3.96270751953125,1,1.0,2.0,1.0,1.0,95.00
2021-10-15 00:03:59.702,1.4156065,0.46339202,1.012013,0.5841145,1.4693725,0.7516512,0.92855805,0.8982583,1.4500588,1.0370752,0.37207034,1.153813,1.0713265,0.972695,0.30175325,0.9570064,0.63409925,0.7659075,-0.084443554,0.66872305,789.7436,782.49084,642.674,836.08057,840.9158,0.079345703125,0.08551025390625,0.99566650390625,-4.687957763671875,-29.795074462890625,-90.6488037109375,1,1.0,1.0,1.0,1.0,95.00
2021-10-15 00:03:59.846,,,,,,,,,,,,,,,,,,,,,,,,,,,,,,,,,,,,,,/muse/elements/blink
2021-10-15 00:04:00.231,1.4663347,0.46339202,1.012013,0.5841145,1.5406243,0.7516512,0.92855805,0.8982583,1.4500588,1.0370752,0.37207034,1.153813,1.1059225,0.972695,0.30175325,0.9570064,0.58014566,0.7659075,-0.084443554,0.66872305,791.75824,895.7143,801.02563,787.72894,682.5641,0.19873046875,0.036376953125,1.00177001953125,10.587158203125,-7.813262939453125,-16.366729736328125,1,1.0,4.0,1.0,1.0,95.00
2021-10-15 00:04:00.578,,,,,,,,,,,,,,,,,,,,,,,,,,,,,,,,,,,,,,/muse/elements/blink
2021-10-15 00:04:00.740,1.424801,0.46339202,1.012013,0.5841145,1.4909638,0.7516512,0.92855805,0.8982583,1.4079802,1.0370752,0.37207034,1.153813,1.123724,0.972695,0.30175325,0.9570064,0.5927622,0.7659075,-0.084443554,0.66872305,828.8278,1143.5165,801.4286,806.6667,917.8755,0.177001953125,0.01019287109375,1.0216064453125,13.510589599609375,-7.65625,6.639404296875,1,1.0,2.0,1.0,1.0,95.00
2021-10-15 00:04:01.268,1.424801,0.46339202,1.012013,0.5841145,1.4909638,0.7516512,0.92855805,0.8982583,1.4079802,1.0370752,0.37207034,1.153813,1.123724,0.972695,0.30175325,0.9570064,0.5927622,0.7659075,-0.084443554,0.66872305,776.04395,848.1685,797.3993,781.685,902.5641,0.1632080078125,0.0040283203125,1.00726318359375,7.439422607421875,-1.15142822265625,-1.203765869140625,1,1.0,4.0,1.0,1.0,95.00
2021-10-15 00:04:01.788,1.424801,0.46339202,1.012013,0.5841145,1.4909638,0.7516512,0.92855805,0.8982583,1.4079802,1.0370752,0.37207034,1.153813,1.123724,0.972695,0.30175325,0.9570064,0.5927622,0.7659075,-0.084443554,0.66872305,741.39197,813.1135,786.9231,784.5055,588.2784,0.12298583984375,0.002685546875,1.050537109375,6.003875732421875,-4.673004150390625,-2.145843505859375,1,1.0,1.0,1.0,1.0,95.00
2021-10-15 00:04:02.302,0.98895997,0.46339202,1.012013,0.8810125,0.8820691,0.7516512,0.92855805,0.8433828,0.62432617,1.0370752,0.37207034,0.8039543,0.6441155,0.972695,0.30175325,0.6018217,0.30392283,0.7659075,-0.084443554,0.22409505,752.27106,822.381,783.2967,792.5641,842.1245,0.10272216796875,0.0015869140625,1.010009765625,6.273040771484375,-2.788848876953125,-0.366363525390625,1,1.0,1.0,1.0,1.0,95.00
2021-10-15 00:04:02.830,1.1631714,0.46339202,1.012013,0.9879778,0.8756336,0.7516512,0.92855805,0.7900939,0.66037476,1.0370752,0.37207034,0.8936073,0.6959162,0.972695,0.30175325,0.6681757,0.3676794,0.7659075,-0.084443554,0.18015756,696.26373,724.4689,827.619,753.47986,663.22345,0.08941650390625,0.0147705078125,1.0191650390625,8.074951171875,0.007476806640625,3.57391357421875,1,1.0,1.0,1.0,1.0,95.00
2021-10-15 00:04:03.012,,,,,,,,,,,,,,,,,,,,,,,,,,,,,,,,,,,,,,/muse/elements/blink
2021-10-15 00:04:03.211,,,,,,,,,,,,,,,,,,,,,,,,,,,,,,,,,,,,,,/muse/elements/blink
2021-10-15 00:04:03.331,1.131215,0.46339202,1.012013,0.99454254,0.848045,0.7516512,0.92855805,0.7681715,0.78547746,1.0370752,0.37207034,0.8946542,0.70870084,0.972695,0.30175325,0.66428494,0.36208177,0.7659075,-0.084443554,0.1286277,807.0696,767.1795,832.8571,780.87915,654.35895,0.2003173828125,-0.01837158203125,1.05743408203125,1.98883056640625,1.293487548828125,-5.2337646484375,1,1.0,1.0,1.0,1.0,95.00
2021-10-15 00:04:03.839,1.2079794,0.46339202,1.012013,1.2262958,0.7156527,0.7516512,0.92855805,0.9045609,0.7206033,1.0370752,0.37207034,1.1541388,0.7635387,0.972695,0.30175325,0.74763346,0.37705058,0.7659075,-0.084443554,0.21637909,832.4542,835.2747,772.01465,826.4103,786.9231,0.20849609375,-0.01995849609375,1.00494384765625,9.308624267578125,-2.46734619140625,4.6356201171875,1,1.0,1.0,1.0,1.0,95.00
