TimeStamp,Delta_TP9,Delta_AF7,Delta_AF8,Delta_TP10,Theta_TP9,Theta_AF7,Theta_AF8,Theta_TP10,Alpha_TP9,Alpha_AF7,Alpha_AF8,Alpha_TP10,Beta_TP9,Beta_AF7,Beta_AF8,Beta_TP10,Gamma_TP9,Gamma_AF7,Gamma_AF8,Gamma_TP10,RAW_TP9,RAW_AF7,RAW_AF8,RAW_TP10,AUX_RIGHT,Accelerometer_X,Accelerometer_Y,Accelerometer_Z,Gyro_X,Gyro_Y,Gyro_Z,HeadBandOn,HSI_TP9,HSI_AF7,HSI_AF8,HSI_TP10,Battery,Elements
2021-09-11 00:41:50.554,,,,,,,,,,,,,,,,,,,,,,,,,,,,,,,,,,,,,,/muse/elements/jaw_clench
2021-09-11 00:41:50.572,1.3200917,0.0,0.0,0.13601851,1.0363541,0.0,0.0,-0.2520527,1.5628873,0.0,0.0,0.89871055,0.77701616,0.0,0.0,0.5584327,0.3131646,0.0,0.0,-0.15441728,711.978,1114.5055,668.46155,714.7985,476.66666,0.33355712890625,-0.0389404296875,0.94818115234375,4.725341796875,-0.964508056640625,-5.405731201171875,1,1.0,1.0,4.0,1.0,65.00
2021-09-11 00:41:51.062,,,,,,,,,,,,,,,,,,,,,,,,,,,,,,,,,,,,,,/muse/elements/blink
2021-09-11 00:41:51.104,1.1492363,0.0,0.0,0.13601851,0.9821767,0.0,0.0,-0.2520527,1.5958055,0.0,0.0,0.89871055,0.9641375,0.0,0.0,0.5584327,0.2602781,0.0,0.0,-0.15441728,792.1612,488.35165,742.1978,796.5934,763.1502,0.345947265625,-0.058837890625,0.95452880859375,7.6861572265625,-7.67120361328125,1.308441162109375,1,1.0,1.0,4.0,1.0,65.00
2021-09-11 00:41:51.640,1.0568335,0.0,0.0,0.13601851,1.0362325,0.0,0.0,-0.2520527,1.4142767,0.0,0.0,0.89871055,1.0988872,0.0,0.0,0.5584327,0.074567296,0.0,0.0,-0.15441728,875.16486,1056.8865,1643.1501,853.8095,1050.8425,0.36614990234375,-0.0306396484375,0.9471435546875,-1.1065673828125,-2.100982666015625,-19.2901611328125,1,1.0,1.0,4.0,1.0,65.00
2021-09-11 00:41:52.150,1.0568335,0.0,0.0,0.13601851,1.0362325,0.0,0.0,-0.2520527,1.4142767,0.0,0.0,0.89871055,1.0988872,0.0,0.0,0.5584327,0.074567296,0.0,0.0,-0.15441728,795.78754,562.0879,901.75824,792.1612,815.9341,0.35284423828125,-0.05804443359375,0.95428466796875,5.256195068359375,-2.97576904296875,-3.69354248046875,1,1.0,1.0,4.0,1.0,65.00
2021-09-11 00:41:52.294,,,,,,,,,,,,,,,,,,,,,,,,,,,,,,,,,,,,,,/muse/elements/jaw_clench
2021-09-11 00:41:52.495,,,,,,,,,,,,,,,,,,,,,,,,,,,,,,,,,,,,,,/muse/elements/jaw_clench
2021-09-11 00:41:52.664,1.0568335,0.0,0.0,0.13601851,1.0362325,0.0,0.0,-0.2520527,1.4142767,0.0,0.0,0.89871055,1.0988872,0.0,0.0,0.5584327,0.074567296,0.0,0.0,-0.15441728,774.83514,869.92676,340.4762,790.54944,620.10986,0.32672119140625,-0.0506591796875,0.9569091796875,5.8917236328125,-2.998199462890625,-2.684173583984375,1,1.0,1.0,4.0,1.0,65.00
2021-09-11 00:41:53.202,0.5416031,0.0,0.0,0.42431992,0.733754,0.0,0.0,0.803136,0.60753,0.0,0.0,0.46561173,0.36457694,0.0,0.0,0.35108003,-0.012546845,0.0,0.0,0.16080256,712.381,544.35895,0.0,743.00366,434.35898,0.31524658203125,-0.05218505859375,0.95660400390625,6.400146484375,-4.42626953125,-2.7215576171875,1,1.0,1.0,4.0,1.0,65.00
2021-09-11 00:41:53.714,0.4224741,0.0,0.0,0.3754082,0.51271915,0.0,0.0,0.5624539,0.6710209,0.0,0.0,0.49024856,0.36652803,0.0,0.0,0.26209828,0.018506275,0.0,0.0,0.008527713,795.38464,685.38464,978.315,790.14655,674.10254,0.33074951171875,-0.03863525390625,0.95953369140625,6.213226318359375,-4.777679443359375,-1.734619140625,1,1.0,1.0,4.0,1.0,65.00
2021-09-11 00:41:53.904,,,,,,,,,,,,,,,,,,,,,,,,,,,,,,,,,,,,,,/muse/elements/jaw_clench
2021-09-11 00:41:54.248,0.31963542,0.0,0.0,0.39760518,0.47436693,0.0,0.0,0.51403826,0.6919239,0.0,0.0,0.52408963,0.40036744,0.0,0.0,0.42459962,-0.0012043772,0.0,0.0,-0.062351163,895.31134,1052.4542,103.95605,849.3773,1278.4982,0.3292236328125,-0.03948974609375,0.95550537109375,6.063690185546875,-4.59075927734375,-1.3458251953125,1,1.0,1.0,4.0,1.0,65.00
2021-09-11 00:41:54.494,,,,,,,,,,,,,,,,,,,,,,,,,,,,,,,,,,,,,,/muse/elements/jaw_clench
2021-09-11 00:41:54.595,,,,,,,,,,,,,,,,,,,,,,,,,,,,,,,,,,,,,,/muse/elements/blink
2021-09-11 00:41:54.770,0.3480709,0.0,0.0,0.5306149,0.4296487,0.0,0.0,0.48723572,0.7415114,0.0,0.0,0.7395333,0.45501485,0.0,0.0,0.51939136,0.030121204,0.0,0.0,-0.045161434,844.94507,918.68134,1377.619,818.7546,957.3626,0.32489013671875,-0.036376953125,0.95880126953125,5.48797607421875,-2.930908203125,-1.652374267578125,1,1.0,1.0,4.0,1.0,65.00
2021-09-11 00:41:55.314,0.7180198,0.0,0.0,0.7704769,0.8733597,0.0,0.0,0.90491605,0.9692563,0.0,0.0,0.9835854,0.62730026,0.0,0.0,0.64607394,0.0683264,0.0,0.0,0.06907811,885.2381,1134.652,18.534798,855.0183,1071.392,0.32196044921875,-0.0423583984375,0.95880126953125,5.45806884765625,-2.73651123046875,-0.351409912109375,1,1.0,1.0,4.0,1.0,65.00
2021-09-11 00:41:55.362,,,,,,,,,,,,,,,,,,,,,,,,,,,,,,,,,,,,,,/muse/elements/jaw_clench
2021-09-11 00:41:55.613,,,,,,,,,,,,,,,,,,,,,,,,,,,,,,,,,,,,,,/muse/elements/jaw_clench
2021-09-11 00:41:55.829,0.73188376,0.0,0.0,0.7988549,0.91166085,0.0,0.0,0.92574024,0.97116,0.0,0.0,0.9990265,0.67192185,0.0,0.0,0.5939627,0.09581723,0.0,0.0,0.1435945,888.0586,1098.3883,18.534798,859.45056,1239.8169,0.32525634765625,-0.04119873046875,0.961669921875,4.658050537109375,-3.327178955078125,-1.757049560546875,1,1.0,1.0,4.0,1.0,65.00
2021-09-11 00:41:56.165,,,,,,,,,,,,,,,,,,,,,,,,,,,,,,,,,,,,,,/muse/elements/blink
2021-09-11 00:41:56.363,0.64457774,0.0,0.0,0.72778374,0.79188436,0.0,0.0,0.8309852,0.9696954,0.0,0.0,0.9987062,0.57546985,0.0,0.0,0.52455956,0.11399273,0.0,0.0,0.15442978,854.21246,1061.3187,1290.989,841.7216,836.8865,0.292236328125,-0.051025390625,0.96331787109375,5.18890380859375,-1.248626708984375,-4.4561767578125,1,1.0,1.0,4.0,1.0,65.00
2021-09-11 00:41:56.899,0.42364186,0.0,0.0,0.522095,0.48708677,0.0,0.0,0.55687505,0.66676456,0.0,0.0,0.69657236,0.4240751,0.0,0.0,0.52359194,0.1559506,0.0,0.0,0.19003272,754.2857,642.674,185.75092,794.9817,856.63007,0.30401611328125,-0.063232421875,0.97564697265625,4.66552734375,-4.508514404296875,-2.452392578125,1,1.0,1.0,4.0,1.0,65.00
2021-09-11 00:41:57.190,,,,,,,,,,,,,,,,,,,,,,,,,,,,,,,,,,,,,,/muse/elements/blink
2021-09-11 00:41:57.441,0.48477408,0.0,0.0,0.5008052,0.41039264,0.0,0.0,0.5630505,0.58786774,0.0,0.0,0.5818501,0.29170632,0.0,0.0,0.51458126,0.17582747,0.0,0.0,0.19270842,906.99634,1253.9194,63.663002,867.1062,1050.0366,0.299560546875,-0.06158447265625,0.97479248046875,9.49554443359375,-13.704986572265625,-2.310333251953125,1,1.0,1.0,4.0,1.0,65.00
2021-09-11 00:41:57.870,,,,,,,,,,,,,,,,,,,,,,,,,,,,,,,,,,,,,,/muse/elements/jaw_clench
2021-09-11 00:41:57.956,0.5585904,0.0,0.0,0.28688735,0.4892843,0.0,0.0,0.46214595,0.32165557,0.0,0.0,0.48342285,0.31382427,0.0,0.0,0.61047935,0.21107846,0.0,0.0,0.2439195,716.8132,629.7802,0.0,809.4872,527.8388,0.203369140625,-0.03631591796875,0.94976806640625,6.35528564453125,-2.70660400390625,0.710296630859375,1,1.0,1.0,4.0,1.0,65.00
2021-09-11 00:41:58.495,0.5801299,0.0,0.0,0.23306574,0.48804885,0.0,0.0,0.3493032,0.30343723,0.0,0.0,0.40411842,0.32563636,0.0,0.0,0.6320646,0.1560125,0.0,0.0,0.20425546,828.8278,639.45056,949.304,834.4689,728.9011,0.21917724609375,-0.0927734375,0.943603515625,1.712188720703125,-17.09197998046875,-5.630035400390625,1,1.0,1.0,4.0,1.0,65.00
2021-09-11 00:41:58.595,,,,,,,,,,,,,,,,,,,,,,,,,,,,,,,,,,,,,,/muse/elements/blink
2021-09-11 00:41:58.850,,,,,,,,,,,,,,,,,,,,,,,,,,,,,,,,,,,,,,/muse/elements/blink
2021-09-11 00:41:59.010,0.5801299,0.0,0.0,0.23306574,0.48804885,0.0,0.0,0.3493032,0.30343723,0.0,0.0,0.40411842,0.32563636,0.0,0.0,0.6320646,0.1560125,0.0,0.0,0.20425546,756.30035,321.9414,396.48352,759.5238,717.2161,0.1826171875,-0.0889892578125,0.9921875,9.07684326171875,-11.97784423828125,-8.770294189453125,1,1.0,4.0,4.0,1.0,65.00
2021-09-11 00:41:59.527,0.5801299,0.0,0.0,0.23306574,0.48804885,0.0,0.0,0.3493032,0.30343723,0.0,0.0,0.40411842,0.32563636,0.0,0.0,0.6320646,0.1560125,0.0,0.0,0.20425546,830.0366,888.86444,1208.3883,809.0842,975.09155,0.24365234375,-0.08984375,0.96514892578125,2.51220703125,1.323394775390625,-0.46356201171875,1,1.0,4.0,4.0,1.0,65.00
2021-09-11 00:41:59.848,,,,,,,,,,,,,,,,,,,,,,,,,,,,,,,,,,,,,,/muse/elements/jaw_clench
2021-09-11 00:42:00.044,0.5801299,0.0,0.0,0.23306574,0.48804885,0.0,0.0,0.3493032,0.30343723,0.0,0.0,0.40411842,0.32563636,0.0,0.0,0.6320646,0.1560125,0.0,0.0,0.20425546,759.5238,584.2491,553.22345,757.9121,455.31134,0.23681640625,-0.06170654296875,0.97137451171875,-4.47113037109375,-6.317901611328125,-23.499603271484375,1,2.0,4.0,4.0,2.0,65.00
2021-09-11 00:42:00.548,0.5801299,0.0,0.0,0.96335906,0.48804885,0.0,0.0,0.38166097,0.30343723,0.0,0.0,0.5332519,0.32563636,0.0,0.0,0.5303945,0.1560125,0.0,0.0,0.14850438,738.5714,518.97437,5.2380953,761.9414,569.34064,0.27081298828125,-0.09173583984375,0.9656982421875,7.753448486328125,-6.998291015625,-1.772003173828125,1,2.0,4.0,4.0,2.0,65.00
2021-09-11 00:42:01.077,1.4159725,0.0,0.0,0.9617275,1.2223471,0.0,0.0,0.25319558,1.2831507,0.0,0.0,0.6305467,1.2779434,0.0,0.0,0.55706143,0.6724299,0.0,0.0,0.16893417,853.8095,0.0,1580.6959,834.4689,987.98535,0.2633056640625,-0.07977294921875,0.98101806640625,6.38519287109375,-3.69354248046875,-0.35888671875,1,1.0,4.0,4.0,1.0,65.00
2021-09-11 00:42:01.584,0.8737223,0.0,0.0,0.9200237,0.60199916,0.0,0.0,0.124884,1.2265062,0.0,0.0,0.6421864,0.99354035,0.0,0.0,0.63128793,0.5173323,0.0,0.0,0.17618105,804.65204,1620.989,834.0659,801.8315,927.9487,0.2593994140625,-0.0804443359375,0.97430419921875,5.615081787109375,-4.029998779296875,-1.293487548828125,1,1.0,4.0,4.0,1.0,65.00
2021-09-11 00:42:01.611,,,,,,,,,,,,,,,,,,,,,,,,,,,,,,,,,,,,,,/muse/elements/blink
2021-09-11 00:42:02.118,0.9145313,0.0,0.0,0.9344216,0.6554675,0.0,0.0,0.49817652,1.2265062,0.0,0.0,0.6535788,0.9057485,0.0,0.0,0.59736186,0.44357866,0.0,0.0,0.19241685,786.9231,950.9158,452.49084,776.8498,597.9487,0.265380859375,-0.08245849609375,0.97589111328125,6.57958984375,-4.687957763671875,-1.114044189453125,1,1.0,4.0,4.0,1.0,65.00
2021-09-11 00:42:02.641,0.8794865,0.0,0.0,0.83844286,0.6454591,0.0,0.0,0.6735498,1.0085498,0.0,0.0,0.9058302,0.79704636,0.0,0.0,0.65228,0.46452838,0.0,0.0,0.23888585,804.65204,1632.2711,1025.0549,807.0696,589.0842,0.2738037109375,-0.0804443359375,0.9718017578125,6.003875732421875,-5.525360107421875,-1.443023681640625,1,1.0,4.0,4.0,1.0,65.00
2021-09-11 00:42:03.171,0.7107548,0.0,0.0,0.7711652,0.62156177,0.0,0.0,0.78687626,0.9856687,0.0,0.0,0.96188354,0.7580662,0.0,0.0,0.6425477,0.38892487,0.0,0.0,0.26729295,746.2271,1000.87915,0.0,770.40295,825.2015,0.27923583984375,-0.07086181640625,0.962890625,5.854339599609375,-4.05242919921875,-1.712188720703125,1,1.0,4.0,4.0,1.0,65.00
2021-09-11 00:42:03.722,0.41962072,0.0,0.0,0.50371134,0.59542406,0.0,0.0,0.6087051,1.0516081,0.0,0.0,1.0329258,0.76719594,0.0,0.0,0.6723103,0.33530784,0.0,0.0,0.20578828,812.3077,889.2674,994.0293,799.81683,701.0989,0.2818603515625,-0.0733642578125,0.96966552734375,5.779571533203125,-3.715972900390625,-2.70660400390625,1,1.0,2.0,4.0,1.0,65.00
2021-09-11 00:42:03.965,,,,,,,,,,,,,,,,,,,,,,,,,,,,,,,,,,,,,,/muse/elements/jaw_clench
2021-09-11 00:42:04.237,0.30545098,0.0,0.0,0.7228518,0.6492856,0.0,0.0,0.7369177,0.86325,0.0,0.0,0.9836798,0.6769289,0.0,0.0,0.6680707,0.14086919,0.0,0.0,0.28552648,783.69965,930.7692,504.06595,785.7143,648.71796,0.28631591796875,-0.0750732421875,0.97509765625,6.5496826171875,-4.02252197265625,-1.861724853515625,1,1.0,2.0,2.0,1.0,65.00
2021-09-11 00:42:04.762,0.32528397,0.0,0.0,0.73840964,0.6290331,0.0,0.0,0.68075925,0.863829,0.0,0.0,1.1337614,0.62767917,0.0,0.0,0.62809634,0.16019796,0.0,0.0,0.26523313,856.63007,930.7692,1529.1208,828.022,1093.1501,0.27728271484375,-0.0673828125,0.97052001953125,6.6693115234375,-3.81317138671875,-1.413116455078125,1,1.0,2.0,2.0,1.0,65.00
2021-09-11 00:42:05.290,,,,,,,,,,,,,,,,,,,,,,,,,,,,,,,,,,,,,,/muse/elements/blink
2021-09-11 00:42:05.293,0.21230534,0.0,0.0,0.75456744,0.50368977,0.0,0.0,0.7208279,0.85957307,0.0,0.0,1.2388992,0.65704703,0.0,0.0,0.68375856,0.15601175,0.0,0.0,0.33108455,840.5128,1569.414,1249.8901,835.2747,803.44324,0.26519775390625,-0.0736083984375,0.961669921875,8.01513671875,-8.1048583984375,11.67877197265625,1,1.0,2.0,4.0,1.0,65.00
2021-09-11 00:42:05.594,,,,,,,,,,,,,,,,,,,,,,,,,,,,,,,,,,,,,,/muse/elements/jaw_clench
2021-09-11 00:42:05.812,0.15470338,0.0,0.0,0.39329755,0.21501552,0.0,0.0,0.40180454,0.7363584,0.0,0.0,1.1923355,0.6320783,0.0,0.0,0.62466466,0.15735547,0.0,0.0,0.20202726,859.45056,1413.8828,1474.7252,827.619,926.7399,0.300537109375,-0.0511474609375,0.96453857421875,5.5029296875,-5.0543212890625,-3.60382080078125,1,1.0,2.0,4.0,1.0,65.00
2021-09-11 00:42:06.190,,,,,,,,,,,,,,,,,,,,,,,,,,,,,,,,,,,,,,/muse/elements/jaw_clench
2021-09-11 00:42:06.340,-0.08109744,0.0,0.0,0.13039994,0.23723042,0.0,0.0,0.5014252,0.6483513,0.0,0.0,1.1886084,0.77367634,0.0,0.0,0.73992324,0.012861315,0.0,0.0,0.15478602,806.6667,1056.4835,869.5238,815.12823,494.3956,0.28131103515625,-0.045166015625,0.9705810546875,2.400054931640625,-2.691650390625,-5.8917236328125,1,1.0,2.0,2.0,1.0,65.00
2021-09-11 00:42:06.767,,,,,,,,,,,,,,,,,,,,,,,,,,,,,,,,,,,,,,/muse/elements/jaw_clench
2021-09-11 00:42:06.841,1.1251936,0.0,0.0,0.13039994,0.87603647,0.0,0.0,0.5014252,1.3627578,0.0,0.0,1.1886084,0.9906906,0.0,0.0,0.73992324,0.6109757,0.0,0.0,0.15478602,761.13556,525.82416,178.09525,760.32965,564.10254,0.312255859375,-0.07366943359375,0.96270751953125,4.912261962890625,-4.5159912109375,-3.880462646484375,1,1.0,2.0,4.0,1.0,65.00
2021-09-11 00:42:07.328,,,,,,,,,,,,,,,,,,,,,,,,,,,,,,,,,,,,,,/muse/elements/jaw_clench
2021-09-11 00:42:07.372,1.0044326,0.0,0.0,0.9564194,0.9236912,0.0,0.0,0.6298548,1.4990118,0.0,0.0,1.1708099,1.085699,0.0,0.0,0.81550014,0.508558,0.0,0.0,0.49418187,828.8278,1071.392,1166.8865,820.3663,821.1722,0.3076171875,-0.05889892578125,0.962158203125,5.525360107421875,-4.47113037109375,-2.310333251953125,1,1.0,2.0,2.0,1.0,65.00
2021-09-11 00:42:07.627,,,,,,,,,,,,,,,,,,,,,,,,,,,,,,,,,,,,,,/muse/elements/jaw_clench
2021-09-11 00:42:07.886,0.85802597,0.0,0.0,0.8128248,0.7825695,0.0,0.0,0.537385,1.4990118,0.0,0.0,1.1708099,0.94372725,0.0,0.0,0.68967056,0.39599195,0.0,0.0,0.3872419,854.21246,966.63007,1620.1831,830.84247,877.98535,0.3118896484375,-0.06109619140625,0.960205078125,5.2935791015625,-4.44122314453125,-2.654266357421875,1,1.0,2.0,2.0,1.0,65.00
2021-09-11 00:42:08.404,0.5804295,0.0,0.0,0.7197945,0.67219,0.0,0.0,0.5321433,1.4990118,0.0,0.0,1.1708099,0.8565517,0.0,0.0,0.647,0.20034854,0.0,0.0,0.2786385,869.12085,800.2198,1582.3077,843.3333,939.6337,0.3038330078125,-0.063232421875,0.9649658203125,6.0711669921875,-2.3028564453125,-0.95703125,1,1.0,2.0,2.0,1.0,65.00
2021-09-11 00:42:08.587,,,,,,,,,,,,,,,,,,,,,,,,,,,,,,,,,,,,,,/muse/elements/jaw_clench
2021-09-11 00:42:08.776,,,,,,,,,,,,,,,,,,,,,,,,,,,,,,,,,,,,,,/muse/elements/blink
2021-09-11 00:42:08.921,0.17572954,0.0,0.0,0.3932858,0.32040945,0.0,0.0,0.51820815,0.90032196,0.0,0.0,0.69666845,0.2451053,0.0,0.0,0.4988397,-0.14467199,0.0,0.0,0.10625657,761.13556,875.9707,56.410255,774.43225,615.2747,0.30828857421875,-0.05474853515625,0.96337890625,5.27862548828125,-3.45428466796875,-2.0635986328125,1,1.0,2.0,2.0,1.0,65.00
2021-09-11 00:42:09.427,0.38317502,0.0,0.0,0.45032486,0.56237483,0.0,0.0,0.57707936,0.90605193,0.0,0.0,0.58977216,0.46454823,0.0,0.0,0.57147014,-0.06126072,0.0,0.0,0.23257957,761.9414,697.47253,244.57875,773.22345,490.76923,0.30218505859375,-0.059326171875,0.966796875,5.600128173828125,-3.99261474609375,-2.699127197265625,1,1.0,1.0,2.0,1.0,65.00
2021-09-11 00:42:09.954,0.43038633,0.0,0.0,0.49588403,0.5619096,0.0,0.0,0.49732232,0.81944144,0.0,0.0,0.6474963,0.5336407,0.0,0.0,0.5599571,0.14013481,0.0,0.0,0.2383639,795.78754,630.58606,40.695972,805.8608,693.44324,0.2977294921875,-0.06634521484375,0.96630859375,5.8917236328125,-3.416900634765625,-2.235565185546875,1,1.0,1.0,2.0,1.0,65.00
2021-09-11 00:42:10.255,,,,,,,,,,,,,,,,,,,,,,,,,,,,,,,,,,,,,,/muse/elements/jaw_clench
2021-09-11 00:42:10.512,0.75675714,0.0,0.0,0.80005217,0.6338227,0.0,0.0,0.468864,0.8295019,0.0,0.0,0.618575,0.60265905,0.0,0.0,0.53595597,0.2794936,0.0,0.0,0.20884211,791.3553,1063.7362,1114.9084,799.81683,671.28204,0.29644775390625,-0.061279296875,0.9696044921875,5.48797607421875,-3.297271728515625,-1.98883056640625,1,1.0,2.0,2.0,1.0,65.00
2021-09-11 00:42:11.026,0.79889184,0.0,0.0,0.838321,0.572251,0.0,0.0,0.37676084,0.5116232,0.0,0.0,0.47224978,0.5375114,0.0,0.0,0.50887233,0.25291264,0.0,0.0,0.08700792,823.5897,876.77655,1003.2967,828.8278,796.1905,0.2901611328125,-0.064697265625,0.9727783203125,5.465545654296875,-4.777679443359375,-0.949554443359375,1,1.0,4.0,4.0,1.0,65.00
2021-09-11 00:42:11.534,0.78845227,0.0,0.0,0.82496023,0.67085624,0.0,0.0,0.4427045,0.5681954,0.0,0.0,0.4700058,0.5302456,0.0,0.0,0.57187134,0.13832033,0.0,0.0,0.08503928,761.53845,821.5751,244.57875,790.54944,743.8095,0.287353515625,-0.069580078125,0.97052001953125,5.570220947265625,-3.327178955078125,-2.07855224609375,1,1.0,4.0,4.0,1.0,65.00
2021-09-11 00:42:12.082,0.43228787,0.0,0.0,0.43750647,0.56691474,0.0,0.0,0.32395908,0.5858791,0.0,0.0,0.5940688,0.5344716,0.0,0.0,0.54147416,0.1237139,0.0,0.0,0.20200554,854.21246,1070.586,1643.5531,832.4542,938.022,0.2908935546875,-0.06866455078125,0.9727783203125,5.60760498046875,-4.11224365234375,-1.31591796875,1,1.0,1.0,4.0,1.0,65.00
2021-09-11 00:42:12.413,,,,,,,,,,,,,,,,,,,,,,,,,,,,,,,,,,,,,,/muse/elements/jaw_clench
2021-09-11 00:42:12.612,0.23472899,0.0,0.0,0.37370127,0.6199425,0.0,0.0,0.45589152,0.81808317,0.0,0.0,0.858331,0.6871135,0.0,0.0,0.6598466,0.21335553,0.0,0.0,0.31778663,888.0586,714.7985,1309.5238,878.7912,1333.2968,0.285400390625,-0.07659912109375,0.9691162109375,5.031890869140625,-3.5589599609375,-2.1533203125,1,1.0,4.0,2.0,1.0,65.00
2021-09-11 00:42:12.619,,,,,,,,,,,,,,,,,,,,,,,,,,,,,,,,,,,,,,/muse/elements/jaw_clench
2021-09-11 00:42:13.152,0.4419401,0.0,0.0,0.60100895,0.62567484,0.0,0.0,0.54834235,0.7946774,0.0,0.0,0.8729462,0.72582114,0.0,0.0,0.7076536,0.25895193,0.0,0.0,0.4140118,823.5897,1101.6117,1579.0842,810.293,723.2601,0.28436279296875,-0.08404541015625,0.96923828125,2.788848876953125,-1.278533935546875,-3.99261474609375,1,1.0,1.0,4.0,1.0,65.00
2021-09-11 00:42:13.693,0.67079806,0.0,0.0,0.84432995,0.5827178,0.0,0.0,0.6188353,1.147927,0.0,0.0,0.9926049,0.72135216,0.0,0.0,0.7553279,0.22554193,0.0,0.0,0.3153588,832.8571,797.3993,1343.37,810.293,1089.5238,0.3177490234375,-0.0806884765625,0.954833984375,7.357177734375,-11.58905029296875,-9.562835693359375,1,1.0,4.0,4.0,1.0,65.00
2021-09-11 00:42:14.114,,,,,,,,,,,,,,,,,,,,,,,,,,,,,,,,,,,,,,/muse/elements/blink
2021-09-11 00:42:14.218,0.74974346,0.0,0.0,0.8071951,0.49957904,0.0,0.0,0.54330164,1.1214414,0.0,0.0,0.9275689,0.6813357,0.0,0.0,0.7139041,0.24947688,0.0,0.0,0.28680816,871.13556,941.6484,1642.7472,840.10986,987.5824,0.3197021484375,-0.074462890625,0.95452880859375,5.555267333984375,-2.691650390625,-1.846771240234375,1,1.0,2.0,2.0,1.0,65.00
2021-09-11 00:42:14.278,,,,,,,,,,,,,,,,,,,,,,,,,,,,,,,,,,,,,,/muse/elements/jaw_clench
2021-09-11 00:42:14.731,0.8149556,0.0,0.0,0.74301004,0.46880034,0.0,0.0,0.4927189,1.1214414,0.0,0.0,0.912479,0.76436025,0.0,0.0,0.72170526,0.26220647,0.0,0.0,0.26285487,824.3956,940.0366,1256.337,807.0696,703.91943,0.30645751953125,-0.08544921875,0.96099853515625,5.330963134765625,-4.5159912109375,-0.351409912109375,1,1.0,2.0,2.0,1.0,65.00
2021-09-11 00:42:15.268,0.8569767,0.0,0.0,0.6761773,0.5575569,0.0,0.0,0.5982072,1.109979,0.0,0.0,0.8361028,0.8334781,0.0,0.0,0.7598984,0.32269418,0.0,0.0,0.36714143,756.30035,810.293,294.5421,782.8938,651.9414,0.30169677734375,-0.068603515625,0.9671630859375,6.287994384765625,-3.12530517578125,-2.13836669921875,1,1.0,1.0,2.0,1.0,65.00
2021-09-11 00:42:15.571,,,,,,,,,,,,,,,,,,,,,,,,,,,,,,,,,,,,,,/muse/elements/blink
2021-09-11 00:42:15.777,0.2668558,0.0,0.0,0.28029346,0.20789388,0.0,0.0,0.2548903,0.579079,0.0,0.0,0.7541513,0.69387025,0.0,0.0,0.5629777,0.3722836,0.0,0.0,0.22773299,758.315,609.2308,456.52014,767.5824,474.24908,0.29669189453125,-0.072265625,0.96551513671875,4.11224365234375,-3.5589599609375,-2.145843505859375,1,1.0,1.0,2.0,1.0,65.00
2021-09-11 00:42:16.297,0.3806528,0.0,0.0,0.40958494,0.13798746,0.0,0.0,0.31597424,0.7439889,0.0,0.0,0.81645566,0.6002066,0.0,0.0,0.62927055,0.4129716,0.0,0.0,0.30699235,848.5714,673.69965,1143.9194,818.7546,1044.7986,0.29827880859375,-0.07427978515625,0.96209716796875,5.615081787109375,-4.83001708984375,-2.878570556640625,1,1.0,4.0,2.0,1.0,65.00
2021-09-11 00:42:16.462,,,,,,,,,,,,,,,,,,,,,,,,,,,,,,,,,,,,,,/muse/elements/jaw_clench
2021-09-11 00:42:16.706,,,,,,,,,,,,,,,,,,,,,,,,,,,,,,,,,,,,,,/muse/elements/blink
2021-09-11 00:42:16.812,0.48535323,0.0,0.0,0.47936583,0.071742535,0.0,0.0,0.4003938,0.8157308,0.0,0.0,0.9469035,0.5663601,0.0,0.0,0.6718438,0.38910216,0.0,0.0,0.27639604,864.2857,1104.4323,1407.8389,839.707,1006.52014,0.29656982421875,-0.07684326171875,0.96185302734375,5.600128173828125,-3.81317138671875,-2.34771728515625,1,1.0,1.0,2.0,1.0,65.00
2021-09-11 00:42:17.348,0.5301142,0.0,0.0,0.5159872,0.10813218,0.0,0.0,0.5373865,0.8192064,0.0,0.0,0.9871856,0.5779353,0.0,0.0,0.77710885,0.35046166,0.0,0.0,0.2517327,787.72894,934.3956,753.0769,790.9524,438.7912,0.29736328125,-0.07501220703125,0.9652099609375,5.203857421875,-4.6954345703125,-2.67669677734375,1,1.0,1.0,2.0,1.0,65.00
2021-09-11 00:42:17.852,0.54279464,0.0,0.0,0.51008457,0.19291739,0.0,0.0,0.5386965,0.53227764,0.0,0.0,0.9660851,0.6094792,0.0,0.0,0.77430975,0.2876293,0.0,0.0,0.21828283,826.0073,977.1062,1083.0769,816.337,821.978,0.294921875,-0.07196044921875,0.97027587890625,5.151519775390625,-3.895416259765625,-1.95892333984375,1,1.0,1.0,2.0,1.0,65.00
2021-09-11 00:42:18.374,0.4835944,0.0,0.0,0.59601295,0.29750746,0.0,0.0,0.49258262,0.54566765,0.0,0.0,0.8731801,0.5986261,0.0,0.0,0.6362824,0.30937785,0.0,0.0,0.40895456,764.35895,955.7509,485.93405,780.07324,462.56412,0.2958984375,-0.06890869140625,0.970703125,6.9085693359375,-4.18701171875,0.785064697265625,1,1.0,1.0,2.0,1.0,65.00
2021-09-11 00:42:18.497,,,,,,,,,,,,,,,,,,,,,,,,,,,,,,,,,,,,,,/muse/elements/jaw_clench
2021-09-11 00:42:18.914,0.48999962,0.0,0.0,0.75485975,0.3353397,0.0,0.0,0.5872068,0.64461535,0.0,0.0,0.67907745,0.63051987,0.0,0.0,0.43867642,0.34344155,0.0,0.0,0.4413539,865.4945,844.1392,1569.011,844.1392,1022.23444,0.294677734375,-0.076904296875,0.97186279296875,4.29168701171875,-3.850555419921875,-2.2430419921875,1,1.0,1.0,2.0,1.0,65.00
2021-09-11 00:42:19.440,0.44158304,0.0,0.0,0.7224545,0.36223948,0.0,0.0,0.6216949,0.63675344,0.0,0.0,0.67459625,0.6702116,0.0,0.0,0.42846215,0.27171066,0.0,0.0,0.34249502,855.42126,872.74725,1324.0293,831.6484,1126.9963,0.29718017578125,-0.0731201171875,0.9632568359375,6.17584228515625,-2.01873779296875,-1.816864013671875,1,1.0,1.0,2.0,1.0,65.00
2021-09-11 00:42:19.602,,,,,,,,,,,,,,,,,,,,,,,,,,,,,,,,,,,,,,/muse/elements/jaw_clench
2021-09-11 00:42:19.928,,,,,,,,,,,,,,,,,,,,,,,,,,,,,,,,,,,,,,/muse/elements/jaw_clench
2021-09-11 00:42:19.983,0.561248,0.0,0.0,0.65914786,0.37284905,0.0,0.0,0.61488515,1.2981722,0.0,0.0,1.0943255,0.7667645,0.0,0.0,0.4093515,0.20968372,0.0,0.0,0.19286995,903.36993,945.6777,1450.5494,876.77655,886.8498,0.28900146484375,-0.0723876953125,0.96746826171875,5.72723388671875,-3.66363525390625,-3.147735595703125,1,1.0,1.0,2.0,1.0,65.00
2021-09-11 00:42:20.044,,,,,,,,,,,,,,,,,,,,,,,,,,,,,,,,,,,,,,/muse/elements/blink
2021-09-11 00:42:20.536,0.6052408,0.0,0.0,0.4860355,0.28720632,0.0,0.0,0.3864402,1.291256,0.0,0.0,1.0560899,0.77680993,0.0,0.0,0.48154068,0.12801905,0.0,0.0,0.15389447,850.18317,929.5604,1552.8938,832.0513,1095.5677,0.27642822265625,-0.11865234375,0.9669189453125,2.7813720703125,-3.416900634765625,-2.691650390625,1,1.0,1.0,4.0,1.0,65.00
2021-09-11 00:42:21.086,0.7238041,0.0,0.0,0.35191166,0.32070777,0.0,0.0,0.3851406,1.291256,0.0,0.0,1.038602,0.8796334,0.0,0.0,0.47600493,0.22617045,0.0,0.0,0.20216575,828.4249,892.8938,1616.9597,820.7692,916.6667,0.27154541015625,-0.12847900390625,0.95989990234375,6.003875732421875,-2.70660400390625,-3.39447021484375,1,1.0,1.0,4.0,1.0,65.00
2021-09-11 00:42:21.141,,,,,,,,,,,,,,,,,,,,,,,,,,,,,,,,,,,,,,/muse/elements/jaw_clench
2021-09-11 00:42:21.309,,,,,,,,,,,,,,,,,,,,,,,,,,,,,,,,,,,,,,/muse/elements/jaw_clench
2021-09-11 00:42:21.627,0.43282512,0.0,0.0,0.5180791,0.68540555,0.0,0.0,0.07751354,0.98109764,0.0,0.0,0.69386977,0.5736136,0.0,0.0,0.47095695,0.17868824,0.0,0.0,-0.005669726,844.94507,893.2967,1305.0916,832.0513,853.4066,0.28131103515625,-0.12811279296875,0.9678955078125,6.0711669921875,-4.14215087890625,-2.3028564453125,1,1.0,1.0,4.0,1.0,50.00
2021-09-11 00:42:22.177,0.84095806,0.0,0.0,0.9086511,0.9108129,0.0,0.0,0.6176348,1.0210705,0.0,0.0,0.8145945,0.5630834,0.0,0.0,0.7413591,0.1900106,0.0,0.0,0.28677243,885.64105,1278.4982,1637.1062,863.8828,1027.4725,0.2847900390625,-0.12408447265625,0.96600341796875,5.211334228515625,-2.99072265625,-2.609405517578125,1,1.0,1.0,2.0,1.0,50.00
2021-09-11 00:42:22.703,0.77159,0.0,0.0,0.86583024,0.7931725,0.0,0.0,0.5947692,1.0238669,0.0,0.0,0.7961233,0.59649473,0.0,0.0,0.7062685,0.13122204,0.0,0.0,0.2658071,803.0403,884.43225,713.1868,804.65204,614.87177,0.27490234375,-0.12103271484375,0.96710205078125,5.9515380859375,-4.478607177734375,-2.415008544921875,1,1.0,1.0,2.0,1.0,50.00
2021-09-11 00:42:23.238,0.8226735,0.0,0.0,0.8892238,0.65979224,0.0,0.0,0.6086924,1.024384,0.0,0.0,0.7693621,0.5546214,0.0,0.0,0.6340333,0.13606612,0.0,0.0,0.23837459,757.50916,779.67035,185.75092,753.0769,469.011,0.2794189453125,-0.123291015625,0.97100830078125,5.15899658203125,-3.611297607421875,-2.43743896484375,1,1.0,4.0,2.0,1.0,50.00
2021-09-11 00:42:23.753,0.73249674,0.0,0.0,0.6142737,0.23615672,0.0,0.0,0.34211716,0.93467873,0.0,0.0,0.43140098,0.5470584,0.0,0.0,0.46032655,0.1385363,0.0,0.0,0.12395556,864.2857,884.43225,1491.6483,832.4542,920.696,0.27191162109375,-0.13433837890625,0.958740234375,4.284210205078125,-4.209442138671875,-2.444915771484375,1,1.0,1.0,2.0,1.0,50.00
2021-09-11 00:42:24.198,,,,,,,,,,,,,,,,,,,,,,,,,,,,,,,,,,,,,,/muse/elements/jaw_clench
2021-09-11 00:42:24.281,0.82118416,0.0,0.0,0.571359,0.1805512,0.0,0.0,0.35386443,0.92747,0.0,0.0,0.41023242,0.4747432,0.0,0.0,0.4271873,0.15226588,0.0,0.0,0.121709615,778.46155,696.26373,261.90475,789.7436,819.15753,0.2779541015625,-0.12713623046875,0.96685791015625,5.405731201171875,-5.360870361328125,-3.416900634765625,1,1.0,2.0,2.0,1.0,50.00
2021-09-11 00:42:24.786,0.83725256,0.0,0.0,0.6797078,0.35380355,0.0,0.0,0.63102096,0.80322903,0.0,0.0,0.6660248,0.4602224,0.0,0.0,0.51603174,0.10848443,0.0,0.0,0.12151096,815.9341,1075.4213,1012.96704,813.91943,707.5458,0.285400390625,-0.12860107421875,0.961669921875,6.078643798828125,-4.0374755859375,-1.966400146484375,1,1.0,1.0,2.0,1.0,50.00
2021-09-11 00:42:25.308,0.9122895,0.0,0.0,0.88363934,0.33960074,0.0,0.0,0.67280775,0.56405425,0.0,0.0,0.76105314,0.45047995,0.0,0.0,0.53445834,0.06591203,0.0,0.0,0.06779323,823.5897,903.36993,1327.2528,810.293,809.4872,0.27947998046875,-0.1275634765625,0.973388671875,5.323486328125,-2.818756103515625,-3.207550048828125,1,1.0,1.0,2.0,1.0,50.00
2021-09-11 00:42:25.592,,,,,,,,,,,,,,,,,,,,,,,,,,,,,,,,,,,,,,/muse/elements/blink
2021-09-11 00:42:25.833,0.9077712,0.0,0.0,0.95068324,0.42789394,0.0,0.0,0.7012133,0.7350656,0.0,0.0,0.8032874,0.55373025,0.0,0.0,0.572442,0.14368682,0.0,0.0,0.051812395,757.9121,807.47253,268.75458,778.0586,653.95605,0.273193359375,-0.11334228515625,0.96905517578125,5.69732666015625,-3.760833740234375,-2.51220703125,1,1.0,1.0,2.0,1.0,50.00
2021-09-11 00:42:25.939,,,,,,,,,,,,,,,,,,,,,,,,,,,,,,,,,,,,,,/muse/elements/jaw_clench
2021-09-11 00:42:26.113,,,,,,,,,,,,,,,,,,,,,,,,,,,,,,,,,,,,,,/muse/elements/jaw_clench
2021-09-11 00:42:26.361,0.923785,0.0,0.0,0.90488374,0.1415972,0.0,0.0,0.37458107,0.7303769,0.0,0.0,0.7087486,0.67466784,0.0,0.0,0.56940025,0.21015225,0.0,0.0,0.043570574,780.07324,848.1685,749.85345,772.01465,598.3516,0.2723388671875,-0.120849609375,0.97235107421875,5.899200439453125,-4.4561767578125,-0.889739990234375,1,1.0,1.0,2.0,1.0,50.00
2021-09-11 00:42:26.884,0.8120678,0.0,0.0,0.7360691,0.13906643,0.0,0.0,0.28873238,0.7303769,0.0,0.0,0.6770019,0.72931886,0.0,0.0,0.5837082,0.31222105,0.0,0.0,0.07957382,741.79486,639.85345,100.32967,738.97437,500.43958,0.2686767578125,-0.12579345703125,0.96917724609375,6.003875732421875,-3.36456298828125,-2.76641845703125,1,1.0,1.0,2.0,1.0,50.00
2021-09-11 00:42:27.416,0.8331608,0.0,0.0,0.31756073,0.4384127,0.0,0.0,0.6529475,0.49489868,0.0,0.0,1.144319,0.6772773,0.0,0.0,0.65438354,0.21891358,0.0,0.0,0.19796717,780.4762,863.8828,1010.54944,783.2967,917.8755,0.27703857421875,-0.117919921875,0.97125244140625,6.9683837890625,-5.5328369140625,0.067291259765625,1,1.0,1.0,4.0,1.0,50.00
2021-09-11 00:42:27.937,,,,,,,,,,,,,,,,,,,,,,,,,,,,,,,,,,,,,,/muse/elements/jaw_clench
2021-09-11 00:42:27.940,0.67945814,0.0,0.0,0.3420204,0.3729329,0.0,0.0,0.5290622,0.65083003,0.0,0.0,1.155923,0.72570986,0.0,0.0,0.7018354,0.21826921,0.0,0.0,0.13193257,740.18317,379.1575,460.9524,738.97437,941.2454,0.266845703125,-0.1219482421875,0.97412109375,6.093597412109375,-3.357086181640625,-1.80938720703125,1,1.0,1.0,4.0,1.0,50.00
2021-09-11 00:42:28.137,,,,,,,,,,,,,,,,,,,,,,,,,,,,,,,,,,,,,,/muse/elements/blink
2021-09-11 00:42:28.444,0.49500796,0.0,0.0,0.34302917,0.3037835,0.0,0.0,0.4859841,0.64111686,0.0,0.0,1.155923,0.7196399,0.0,0.0,0.7147446,0.17256565,0.0,0.0,0.028302262,794.57874,903.7729,890.4762,810.293,826.8132,0.26007080078125,-0.119873046875,0.96612548828125,5.4730224609375,-3.327178955078125,-1.48040771484375,1,1.0,1.0,4.0,1.0,50.00
2021-09-11 00:42:28.534,,,,,,,,,,,,,,,,,,,,,,,,,,,,,,,,,,,,,,/muse/elements/jaw_clench
2021-09-11 00:42:28.708,,,,,,,,,,,,,,,,,,,,,,,,,,,,,,,,,,,,,,/muse/elements/jaw_clench
2021-09-11 00:42:28.971,0.24948868,0.0,0.0,0.39390072,0.22585063,0.0,0.0,0.2305372,0.6312311,0.0,0.0,0.8893422,0.7778501,0.0,0.0,0.7141698,0.24716735,0.0,0.0,-0.012004067,830.4396,890.07324,1259.5604,837.28937,866.30035,0.26361083984375,-0.1185302734375,0.97357177734375,5.263671875,-4.702911376953125,-2.594451904296875,1,1.0,1.0,4.0,1.0,50.00
2021-09-11 00:42:29.237,,,,,,,,,,,,,,,,,,,,,,,,,,,,,,,,,,,,,,/muse/elements/jaw_clench
2021-09-11 00:42:29.488,0.24948868,0.0,0.0,0.39390072,0.22585063,0.0,0.0,0.2305372,0.6312311,0.0,0.0,0.8893422,0.7778501,0.0,0.0,0.7141698,0.24716735,0.0,0.0,-0.012004067,802.6374,546.3736,414.6154,807.47253,906.99634,0.25384521484375,-0.12579345703125,0.96337890625,4.6954345703125,-2.27294921875,-5.63751220703125,1,1.0,1.0,2.0,1.0,50.00
2021-09-11 00:42:30.017,0.075007156,0.0,0.0,0.44218764,0.59149194,0.0,0.0,0.33397108,0.8601184,0.0,0.0,0.77703685,0.61402494,0.0,0.0,0.6863269,0.2692992,0.0,0.0,0.21195565,761.53845,773.22345,266.73993,770.40295,485.1282,0.26458740234375,-0.1219482421875,0.96820068359375,7.46185302734375,-5.3533935546875,-2.0037841796875,1,1.0,1.0,2.0,1.0,50.00
2021-09-11 00:42:30.525,0.32427067,0.0,0.0,0.5010781,0.639275,0.0,0.0,0.49784023,0.860822,0.0,0.0,0.8313198,0.57254386,0.0,0.0,0.7109028,0.3149345,0.0,0.0,0.27098727,756.30035,676.52014,0.0,784.5055,584.2491,0.255615234375,-0.1187744140625,0.9727783203125,5.8917236328125,-3.910369873046875,-2.609405517578125,1,1.0,1.0,2.0,1.0,50.00
2021-09-11 00:42:31.055,0.30280778,0.0,0.0,0.48541605,0.62870306,0.0,0.0,0.4940836,0.70752406,0.0,0.0,0.81099445,0.5797759,0.0,0.0,0.68330723,0.36708766,0.0,0.0,0.26629475,873.5531,929.9634,1542.0146,859.85345,1047.619,0.2598876953125,-0.1187744140625,0.97344970703125,5.734710693359375,-4.44122314453125,-2.2430419921875,1,1.0,1.0,2.0,1.0,50.00
2021-09-11 00:42:31.561,0.6122887,0.0,0.0,0.56814194,0.5973868,0.0,0.0,0.5212649,0.6673785,0.0,0.0,0.73206586,0.45963195,0.0,0.0,0.6215847,0.40431732,0.0,0.0,0.27987337,803.44324,954.94507,1044.7986,808.68134,542.3443,0.2548828125,-0.123291015625,0.9705810546875,5.93658447265625,-4.366455078125,-2.1533203125,1,1.0,1.0,2.0,1.0,50.00
2021-09-11 00:42:32.092,0.7722242,0.0,0.0,0.72047627,0.44815016,0.0,0.0,0.39400285,0.6178943,0.0,0.0,0.6938737,0.47130775,0.0,0.0,0.5150221,0.3701274,0.0,0.0,0.19006704,770.80585,658.7912,199.04762,770.40295,548.7912,0.25732421875,-0.1246337890625,0.9732666015625,5.63751220703125,-4.104766845703125,-2.4224853515625,1,1.0,1.0,2.0,1.0,65.00
2021-09-11 00:42:32.312,,,,,,,,,,,,,,,,,,,,,,,,,,,,,,,,,,,,,,/muse/elements/jaw_clench
2021-09-11 00:42:32.620,0.8322106,0.0,0.0,0.8102128,0.41255873,0.0,0.0,0.45602643,0.8437406,0.0,0.0,0.6056578,0.52916586,0.0,0.0,0.50916505,0.2596784,0.0,0.0,0.09588609,756.30035,601.5751,168.42491,793.36993,1192.674,0.25787353515625,-0.12615966796875,0.97332763671875,5.420684814453125,-4.194488525390625,-2.70660400390625,1,1.0,1.0,2.0,1.0,65.00
2021-09-11 00:42:32.900,,,,,,,,,,,,,,,,,,,,,,,,,,,,,,,,,,,,,,/muse/elements/blink
2021-09-11 00:42:33.131,0.747712,0.0,0.0,0.79555005,0.27083144,0.0,0.0,0.5275346,1.4493523,0.0,0.0,0.8555946,0.74893236,0.0,0.0,0.6484184,0.2795817,0.0,0.0,0.20898446,745.0183,681.75824,119.2674,749.85345,446.04395,0.26275634765625,-0.12286376953125,0.9649658203125,6.041259765625,-4.35150146484375,-1.413116455078125,1,1.0,4.0,4.0,1.0,65.00
2021-09-11 00:42:33.514,,,,,,,,,,,,,,,,,,,,,,,,,,,,,,,,,,,,,,/muse/elements/jaw_clench
2021-09-11 00:42:33.651,0.62044066,0.0,0.0,0.66483265,0.4023815,0.0,0.0,0.5824551,1.5835284,0.0,0.0,1.0649239,0.88474965,0.0,0.0,0.76514095,0.28011283,0.0,0.0,0.2526681,814.7253,678.5348,826.4103,795.38464,804.2491,0.25958251953125,-0.11846923828125,0.975830078125,5.03936767578125,-3.84307861328125,-3.132781982421875,1,1.0,1.0,4.0,1.0,65.00
2021-09-11 00:42:34.173,0.54347265,0.0,0.0,0.46327546,0.49375468,0.0,0.0,0.46072575,1.5866138,0.0,0.0,1.06109,0.8457312,0.0,0.0,0.76715463,0.32170454,0.0,0.0,0.27616647,851.79486,977.50916,37.472527,823.9927,985.16486,0.2730712890625,-0.127685546875,0.970703125,5.18890380859375,-4.1571044921875,-3.00567626953125,1,1.0,1.0,4.0,1.0,65.00
2021-09-11 00:42:34.701,0.4109325,0.0,0.0,0.28194726,0.6337636,0.0,0.0,0.3392345,1.5867285,0.0,0.0,1.0543646,0.81794834,0.0,0.0,0.79222584,0.27174014,0.0,0.0,0.14810319,838.0952,816.337,1051.2454,825.6044,971.4652,0.27484130859375,-0.121826171875,0.9698486328125,7.828216552734375,-4.65057373046875,-3.51409912109375,1,1.0,1.0,4.0,1.0,65.00
2021-09-11 00:42:35.202,0.3170038,0.0,0.0,0.28655404,0.6961258,0.0,0.0,0.37090904,1.037022,0.0,0.0,0.68769234,0.6622713,0.0,0.0,0.6928564,0.28403625,0.0,0.0,0.10904311,766.77655,952.1245,536.30035,777.25275,731.7216,0.27783203125,-0.15478515625,0.973388671875,2.07855224609375,-3.925323486328125,-5.921630859375,1,1.0,1.0,2.0,1.0,65.00
2021-09-11 00:42:35.386,,,,,,,,,,,,,,,,,,,,,,,,,,,,,,,,,,,,,,/muse/elements/blink
2021-09-11 00:42:35.737,0.48007607,0.0,0.0,0.6296351,0.7233721,0.0,0.0,0.5690567,1.2046647,0.0,0.0,0.8425524,0.9350429,0.0,0.0,0.7297302,0.24377763,0.0,0.0,0.10268442,755.09155,709.5604,168.02197,757.1062,406.15384,0.25103759765625,-0.1376953125,0.975341796875,6.123504638671875,-4.0673828125,-2.400054931640625,1,1.0,1.0,2.0,1.0,65.00
2021-09-11 00:42:36.255,0.6265837,0.0,0.0,0.9217235,0.604266,0.0,0.0,0.7716331,1.223317,0.0,0.0,0.86528003,0.9710276,0.0,0.0,0.6483976,0.19281733,0.0,0.0,0.20920101,776.8498,830.0366,347.72894,777.25275,512.52747,0.23614501953125,-0.14251708984375,0.9671630859375,5.203857421875,-1.876678466796875,-1.607513427734375,1,1.0,1.0,2.0,1.0,65.00
2021-09-11 00:42:36.784,0.6435998,0.0,0.0,0.9058092,0.547199,0.0,0.0,0.7316589,1.2167995,0.0,0.0,0.8891558,0.9594761,0.0,0.0,0.7334058,0.20672968,0.0,0.0,0.23306684,844.1392,914.65204,1631.8682,826.8132,1136.6666,0.240478515625,-0.14599609375,0.97003173828125,6.160888671875,-4.007568359375,-2.25799560546875,1,1.0,1.0,2.0,1.0,65.00
2021-09-11 00:42:37.298,0.45453998,0.0,0.0,0.6786571,0.4449669,0.0,0.0,0.4972082,0.9364246,0.0,0.0,0.84335274,0.6861354,0.0,0.0,0.65189683,0.2116046,0.0,0.0,0.14232315,808.2784,642.27106,786.9231,794.9817,931.978,0.24420166015625,-0.141357421875,0.970458984375,5.869293212890625,-4.02252197265625,-1.772003173828125,1,1.0,1.0,2.0,1.0,65.00
2021-09-11 00:42:37.400,,,,,,,,,,,,,,,,,,,,,,,,,,,,,,,,,,,,,,/muse/elements/jaw_clench
2021-09-11 00:42:37.755,,,,,,,,,,,,,,,,,,,,,,,,,,,,,,,,,,,,,,/muse/elements/jaw_clench
2021-09-11 00:42:37.819,0.2876902,0.0,0.0,0.47361758,0.5251219,0.0,0.0,0.41700473,0.8644518,0.0,0.0,0.6966628,0.6012638,0.0,0.0,0.6058292,0.15384059,0.0,0.0,0.04333026,788.1319,891.685,647.9121,796.5934,701.0989,0.24139404296875,-0.1444091796875,0.9730224609375,6.736602783203125,-3.887939453125,-1.89910888671875,1,1.0,1.0,4.0,1.0,65.00
2021-09-11 00:42:38.351,0.2036591,0.0,0.0,0.47048548,0.4453213,0.0,0.0,0.39427635,0.862942,0.0,0.0,0.74517673,0.64805967,0.0,0.0,0.53708315,0.123975076,0.0,0.0,0.118759476,856.63007,941.2454,1408.2417,829.6337,799.41394,0.23895263671875,-0.13616943359375,0.97247314453125,5.48797607421875,-4.0374755859375,-1.6748046875,1,1.0,1.0,2.0,1.0,65.00
2021-09-11 00:42:38.869,0.16205351,0.0,0.0,0.39788815,0.47745574,0.0,0.0,0.3940134,0.9193166,0.0,0.0,0.80663306,0.7016693,0.0,0.0,0.5839421,0.1445217,0.0,0.0,0.2510313,798.60803,876.77655,456.92307,786.1172,529.45056,0.24383544921875,-0.13970947265625,0.9722900390625,5.90667724609375,-3.54400634765625,-2.564544677734375,1,1.0,1.0,4.0,1.0,65.00
2021-09-11 00:42:38.894,,,,,,,,,,,,,,,,,,,,,,,,,,,,,,,,,,,,,,/muse/elements/jaw_clench
2021-09-11 00:42:39.381,0.13769977,0.0,0.0,0.33457178,0.48938343,0.0,0.0,0.2350778,0.9333694,0.0,0.0,0.78535765,0.68187946,0.0,0.0,0.66537845,0.23086718,0.0,0.0,0.31077027,831.2454,942.8571,1301.4652,819.9634,708.7546,0.2359619140625,-0.14093017578125,0.9771728515625,5.9515380859375,-2.280426025390625,-2.295379638671875,1,1.0,1.0,2.0,1.0,65.00
2021-09-11 00:42:39.905,0.2735421,0.0,0.0,0.38192523,0.5079243,0.0,0.0,0.17776859,0.91445935,0.0,0.0,0.76537246,0.6070203,0.0,0.0,0.71572685,0.25769058,0.0,0.0,0.32575297,774.83514,664.43225,566.52014,772.8205,722.4542,0.2335205078125,-0.14276123046875,0.97711181640625,5.263671875,-4.725341796875,-2.3626708984375,1,1.0,4.0,2.0,1.0,65.00
2021-09-11 00:42:40.110,,,,,,,,,,,,,,,,,,,,,,,,,,,,,,,,,,,,,,/muse/elements/jaw_clench
2021-09-11 00:42:40.418,0.35731202,0.0,0.0,0.2719066,0.45493287,0.0,0.0,0.27076256,0.9127558,0.0,0.0,0.78307754,0.5645041,0.0,0.0,0.7484316,0.21630435,0.0,0.0,0.1953099,853.00366,740.58606,1002.8938,853.4066,1497.6923,0.234130859375,-0.13873291015625,0.97576904296875,6.048736572265625,-3.850555419921875,-1.772003173828125,1,1.0,1.0,2.0,1.0,65.00
2021-09-11 00:42:40.932,0.52088594,0.0,0.0,0.37787035,0.32976836,0.0,0.0,0.39397988,0.77799654,0.0,0.0,0.55062926,0.63275117,0.0,0.0,0.67875063,0.09870774,0.0,0.0,0.091905944,831.6484,973.8828,1526.3004,818.7546,777.6557,0.23565673828125,-0.1383056640625,0.974365234375,4.85992431640625,-4.194488525390625,-2.355194091796875,1,1.0,1.0,2.0,1.0,65.00
2021-09-11 00:42:41.452,0.5386725,0.0,0.0,0.39235896,0.45939568,0.0,0.0,0.46836463,1.2003815,0.0,0.0,0.674041,0.7305697,0.0,0.0,0.5635613,0.055752195,0.0,0.0,0.004016166,776.04395,823.5897,651.9414,791.75824,641.8681,0.2357177734375,-0.14208984375,0.97900390625,5.69732666015625,-3.648681640625,-2.19818115234375,1,1.0,1.0,2.0,1.0,65.00
2021-09-11 00:42:41.967,0.536278,0.0,0.0,0.39643985,0.48043266,0.0,0.0,0.37777168,1.2003815,0.0,0.0,0.7449255,0.711718,0.0,0.0,0.4549923,0.059725363,0.0,0.0,0.015504424,744.61536,736.55676,0.0,760.7326,803.0403,0.236328125,-0.141357421875,0.97442626953125,6.0711669921875,-3.656158447265625,-2.415008544921875,1,1.0,1.0,2.0,1.0,70.00
2021-09-11 00:42:42.484,0.5714715,0.0,0.0,0.48207104,0.48193654,0.0,0.0,0.39308116,1.1991819,0.0,0.0,0.9394857,0.6929597,0.0,0.0,0.4873426,0.13123496,0.0,0.0,0.075297914,783.2967,694.65204,485.93405,781.685,615.6777,0.2374267578125,-0.13873291015625,0.980712890625,5.899200439453125,-4.306640625,-2.51220703125,1,1.0,1.0,2.0,1.0,70.00
2021-09-11 00:42:42.991,0.6845435,0.0,0.0,0.5946746,0.27792528,0.0,0.0,0.36848915,1.0686752,0.0,0.0,0.9394857,0.6319245,0.0,0.0,0.46211544,0.12146868,0.0,0.0,0.106858104,848.97437,792.96704,1344.1758,838.9011,1002.0879,0.2374267578125,-0.13787841796875,0.976806640625,5.330963134765625,-3.84307861328125,-2.58697509765625,1,1.0,1.0,2.0,1.0,70.00
2021-09-11 00:42:43.339,,,,,,,,,,,,,,,,,,,,,,,,,,,,,,,,,,,,,,/muse/elements/jaw_clench
2021-09-11 00:42:43.540,0.69346225,0.0,0.0,0.66236633,0.17009203,0.0,0.0,0.31566682,0.74573684,0.0,0.0,0.9411074,0.5652358,0.0,0.0,0.48738313,0.14576897,0.0,0.0,0.09985455,835.6777,922.3077,1511.7949,822.381,817.5458,0.234375,-0.13427734375,0.9744873046875,5.90667724609375,-3.775787353515625,-2.7813720703125,1,1.0,1.0,2.0,1.0,70.00
2021-09-11 00:42:43.834,,,,,,,,,,,,,,,,,,,,,,,,,,,,,,,,,,,,,,/muse/elements/jaw_clench
2021-09-11 00:42:44.064,0.7755519,0.0,0.0,0.7307178,0.035975967,0.0,0.0,0.25657225,0.48281446,0.0,0.0,0.74478185,0.5645695,0.0,0.0,0.5166298,0.092172764,0.0,0.0,0.04971805,797.8022,845.34796,946.08057,797.8022,630.989,0.240234375,-0.13323974609375,0.9718017578125,5.256195068359375,-4.14215087890625,-2.3626708984375,1,1.0,1.0,2.0,1.0,70.00
2021-09-11 00:42:44.171,,,,,,,,,,,,,,,,,,,,,,,,,,,,,,,,,,,,,,/muse/elements/jaw_clench
2021-09-11 00:42:44.350,,,,,,,,,,,,,,,,,,,,,,,,,,,,,,,,,,,,,,/muse/elements/jaw_clench
2021-09-11 00:42:44.587,0.657562,0.0,0.0,0.5919249,0.31579953,0.0,0.0,0.2507107,0.66281676,0.0,0.0,0.8505168,0.5157449,0.0,0.0,0.5811133,0.049142063,0.0,0.0,0.05759886,834.4689,923.91943,1422.3444,821.5751,888.46155,0.23834228515625,-0.13946533203125,0.97698974609375,5.9814453125,-3.27484130859375,-2.385101318359375,1,1.0,1.0,2.0,1.0,70.00
2021-09-11 00:42:45.219,0.6404438,0.0,0.0,0.54999137,0.36827382,0.0,0.0,0.3429498,0.6758976,0.0,0.0,0.9712119,0.5361789,0.0,0.0,0.58445835,0.05303732,0.0,0.0,0.108667105,777.6557,765.16486,355.78754,783.69965,477.47253,0.23846435546875,-0.1383056640625,0.97125244140625,5.7720947265625,-3.72344970703125,-1.48040771484375,1,1.0,1.0,2.0,1.0,70.00
2021-09-11 00:42:45.267,,,,,,,,,,,,,,,,,,,,,,,,,,,,,,,,,,,,,,/muse/elements/jaw_clench
2021-09-11 00:42:45.394,,,,,,,,,,,,,,,,,,,,,,,,,,,,,,,,,,,,,,/muse/elements/jaw_clench
2021-09-11 00:42:45.755,0.4163783,0.0,0.0,0.277362,0.26844722,0.0,0.0,0.2701291,0.81832105,0.0,0.0,0.95751494,0.48680183,0.0,0.0,0.4606338,0.13669595,0.0,0.0,0.26409495,759.92676,786.1172,157.54579,761.9414,378.35165,0.23773193359375,-0.13690185546875,0.97418212890625,6.3104248046875,-4.02252197265625,-2.100982666015625,1,1.0,1.0,2.0,1.0,70.00
2021-09-11 00:42:46.282,0.5150628,0.0,0.0,0.44060773,0.024808528,0.0,0.0,0.15495619,0.76091194,0.0,0.0,0.9404738,0.5714937,0.0,0.0,0.5385495,0.23977335,0.0,0.0,0.19846287,836.8865,855.0183,0.0,831.6484,936.0073,0.235595703125,-0.1358642578125,0.97406005859375,5.794525146484375,-4.20196533203125,-1.996307373046875,1,1.0,1.0,2.0,1.0,70.00
2021-09-11 00:42:46.794,0.59257966,0.0,0.0,0.49747413,-0.26496643,0.0,0.0,0.0052645183,0.68249375,0.0,0.0,0.5702103,0.573996,0.0,0.0,0.6428826,0.32669768,0.0,0.0,0.23021375,820.3663,778.86444,1239.414,813.5165,1116.5201,0.23602294921875,-0.1361083984375,0.9771728515625,5.764617919921875,-4.05242919921875,-2.1533203125,1,1.0,1.0,2.0,1.0,70.00
2021-09-11 00:42:46.838,,,,,,,,,,,,,,,,,,,,,,,,,,,,,,,,,,,,,,/muse/elements/jaw_clench
2021-09-11 00:42:47.031,,,,,,,,,,,,,,,,,,,,,,,,,,,,,,,,,,,,,,/muse/elements/jaw_clench
2021-09-11 00:42:47.304,0.6144202,0.0,0.0,0.4978028,-0.12322018,0.0,0.0,0.05544252,0.57384974,0.0,0.0,0.5284029,0.59532475,0.0,0.0,0.6499864,0.3168686,0.0,0.0,0.20202683,764.35895,756.30035,63.663002,766.77655,712.7839,0.23968505859375,-0.13946533203125,0.97320556640625,6.02630615234375,-4.284210205078125,-1.68975830078125,1,1.0,1.0,2.0,1.0,70.00
2021-09-11 00:42:47.829,0.6144202,0.0,0.0,0.4978028,-0.12322018,0.0,0.0,0.05544252,0.57384974,0.0,0.0,0.5284029,0.59532475,0.0,0.0,0.6499864,0.3168686,0.0,0.0,0.20202683,764.35895,756.30035,63.663002,766.77655,712.7839,0.23968505859375,-0.13946533203125,0.97320556640625,6.02630615234375,-4.284210205078125,-1.68975830078125,1,1.0,1.0,2.0,1.0,70.00
2021-09-11 00:42:48.159,,,,,,,,,,,,,,,,,,,,,,,,,,,,,,,,,,,,,,/muse/elements/jaw_clench
2021-09-11 00:42:48.351,0.56747866,0.0,0.0,3.5687995,0.5003046,0.0,0.0,2.5998778,0.71203375,0.0,0.0,3.002629,0.5193935,0.0,0.0,2.1226554,-0.046136055,0.0,0.0,1.5619421,801.02563,741.79486,936.0073,786.52014,817.5458,0.2322998046875,-0.13336181640625,0.97637939453125,5.929107666015625,-3.865509033203125,-1.98883056640625,1,1.0,1.0,2.0,1.0,70.00
2021-09-11 00:42:48.646,,,,,,,,,,,,,,,,,,,,,,,,,,,,,,,,,,,,,,/muse/elements/jaw_clench
2021-09-11 00:42:48.818,,,,,,,,,,,,,,,,,,,,,,,,,,,,,,,,,,,,,,/muse/elements/jaw_clench
2021-09-11 00:42:48.867,0.48036894,0.0,0.0,4.1034665,0.62965715,0.0,0.0,3.1327465,0.7071277,0.0,0.0,3.0391858,0.5222855,0.0,0.0,2.6363177,-0.083576344,0.0,0.0,2.0707092,743.4066,730.5128,515.7509,758.71796,531.06226,0.23193359375,-0.1337890625,0.97845458984375,5.734710693359375,-3.84307861328125,-2.265472412109375,1,1.0,1.0,2.0,1.0,70.00
2021-09-11 00:42:49.134,,,,,,,,,,,,,,,,,,,,,,,,,,,,,,,,,,,,,,/muse/elements/jaw_clench
2021-09-11 00:42:49.421,0.48036894,0.0,0.0,4.060653,0.62965715,0.0,0.0,3.0881531,0.7071277,0.0,0.0,3.0391858,0.5222855,0.0,0.0,2.5939016,-0.083576344,0.0,0.0,2.027733,755.4945,698.68134,0.0,771.6117,871.9414,0.23956298828125,-0.13385009765625,0.97491455078125,5.794525146484375,-3.887939453125,-1.83929443359375,1,1.0,1.0,2.0,1.0,70.00
2021-09-11 00:42:49.482,,,,,,,,,,,,,,,,,,,,,,,,,,,,,,,,,,,,,,/muse/elements/jaw_clench
2021-09-11 00:42:49.961,0.52167904,0.0,0.0,3.6992767,0.25703123,0.0,0.0,2.7276657,1.0977049,0.0,0.0,3.0070386,0.62207854,0.0,0.0,2.229753,-0.070962034,0.0,0.0,1.6628622,782.49084,769.19415,535.89746,788.93774,539.12085,0.23272705078125,-0.13348388671875,0.98272705078125,6.400146484375,-3.648681640625,-3.476715087890625,1,1.0,1.0,2.0,1.0,70.00
2021-09-11 00:42:50.191,,,,,,,,,,,,,,,,,,,,,,,,,,,,,,,,,,,,,,/muse/elements/jaw_clench
2021-09-11 00:42:50.479,0.6785821,0.0,0.0,0.3374695,0.5356532,0.0,0.0,0.3290484,1.1123002,0.0,0.0,0.69303554,0.62574196,0.0,0.0,0.5459481,0.317623,0.0,0.0,0.33875465,752.674,693.44324,28.608059,783.69965,586.6667,0.23583984375,-0.13433837890625,0.9776611328125,5.63751220703125,-3.4393310546875,-1.98883056640625,1,1.0,1.0,2.0,1.0,70.00
2021-09-11 00:42:50.645,,,,,,,,,,,,,,,,,,,,,,,,,,,,,,,,,,,,,,/muse/elements/jaw_clench
2021-09-11 00:42:51.012,0.66101056,0.0,0.0,0.3426684,0.55091983,0.0,0.0,0.38261303,1.0187514,0.0,0.0,0.7247715,0.6773676,0.0,0.0,0.60907876,0.46695924,0.0,0.0,0.4377341,844.94507,852.6007,1441.2821,844.94507,1081.8682,0.237548828125,-0.128662109375,0.9779052734375,6.17584228515625,-4.089813232421875,-2.056121826171875,1,1.0,1.0,2.0,1.0,70.00
2021-09-11 00:42:51.162,,,,,,,,,,,,,,,,,,,,,,,,,,,,,,,,,,,,,,/muse/elements/blink
2021-09-11 00:42:51.566,0.7844256,0.0,0.0,0.8570248,0.93556947,0.0,0.0,0.85454345,1.0497736,0.0,0.0,1.1603733,0.7750972,0.0,0.0,0.68000615,0.4979428,0.0,0.0,0.41850555,840.9158,838.49817,1636.7032,834.4689,863.0769,0.23870849609375,-0.1341552734375,0.9742431640625,6.063690185546875,-3.581390380859375,-2.669219970703125,1,1.0,1.0,2.0,1.0,70.00
2021-09-11 00:42:51.741,,,,,,,,,,,,,,,,,,,,,,,,,,,,,,,,,,,,,,/muse/elements/jaw_clench
2021-09-11 00:42:52.079,0.78341436,0.0,0.0,1.0695755,0.9405933,0.0,0.0,1.0126659,1.0560879,0.0,0.0,1.1670266,0.75446373,0.0,0.0,0.7100305,0.38196948,0.0,0.0,0.2985031,817.1429,756.30035,836.8865,806.6667,871.53845,0.24310302734375,-0.10577392578125,0.9764404296875,9.802093505859375,-4.5758056640625,0.665435791015625,1,1.0,1.0,2.0,1.0,70.00
2021-09-11 00:42:52.586,0.7413099,0.0,0.0,1.126186,0.8843282,0.0,0.0,1.0343046,1.0560879,0.0,0.0,1.1663781,0.6198713,0.0,0.0,0.617755,0.0893769,0.0,0.0,-0.016530963,857.4359,851.39197,1640.7325,828.8278,966.2271,0.25274658203125,-0.0908203125,0.9793701171875,5.27862548828125,-3.342132568359375,-2.79632568359375,1,1.0,1.0,2.0,1.0,70.00
2021-09-11 00:42:52.804,,,,,,,,,,,,,,,,,,,,,,,,,,,,,,,,,,,,,,/muse/elements/jaw_clench
2021-09-11 00:42:53.105,0.3970672,0.0,0.0,0.6155258,0.29559702,0.0,0.0,0.4004576,0.8023004,0.0,0.0,0.8290291,0.37443042,0.0,0.0,0.45765072,0.06631991,0.0,0.0,-0.12993942,838.0952,844.1392,1189.8535,830.0366,864.2857,0.250244140625,-0.09149169921875,0.97650146484375,4.942169189453125,-4.074859619140625,-2.75146484375,1,1.0,1.0,2.0,1.0,70.00
2021-09-11 00:42:53.629,0.19340669,0.0,0.0,0.3695,0.103539474,0.0,0.0,0.15764922,0.80805355,0.0,0.0,0.6532089,0.3658669,0.0,0.0,0.43691045,0.059527397,0.0,0.0,-0.06503457,778.0586,906.5934,393.26007,786.9231,799.011,0.2501220703125,-0.09521484375,0.9803466796875,5.779571533203125,-4.523468017578125,-2.22808837890625,1,1.0,1.0,2.0,1.0,70.00
2021-09-11 00:42:54.017,,,,,,,,,,,,,,,,,,,,,,,,,,,,,,,,,,,,,,/muse/elements/jaw_clench
2021-09-11 00:42:54.151,0.15375552,0.0,0.0,0.4494149,0.22020444,0.0,0.0,0.23770176,0.82763743,0.0,0.0,0.5443714,0.42250392,0.0,0.0,0.43961713,0.064228475,0.0,0.0,0.036526415,747.03296,713.5897,159.15752,763.5531,533.0769,0.244384765625,-0.09625244140625,0.97869873046875,6.228179931640625,-3.22998046875,-2.385101318359375,1,1.0,1.0,2.0,1.0,70.00
2021-09-11 00:42:54.681,0.3338671,0.0,0.0,0.41701186,0.39741558,0.0,0.0,0.31704292,0.7730952,0.0,0.0,0.80646753,0.5187271,0.0,0.0,0.5806555,0.06366198,0.0,0.0,0.06618094,806.6667,727.28937,856.2271,794.17584,830.0366,0.24493408203125,-0.09521484375,0.9779052734375,5.809478759765625,-4.62066650390625,-2.908477783203125,1,1.0,1.0,2.0,1.0,70.00
2021-09-11 00:42:54.970,,,,,,,,,,,,,,,,,,,,,,,,,,,,,,,,,,,,,,/muse/elements/jaw_clench
2021-09-11 00:42:55.187,0.51524884,0.0,0.0,0.5716613,0.57617587,0.0,0.0,0.4788715,0.96299744,0.0,0.0,0.9730834,0.69039685,0.0,0.0,0.7827727,0.0085802255,0.0,0.0,-0.007970053,747.4359,773.6264,427.91208,761.13556,516.55676,0.25177001953125,-0.09912109375,0.97247314453125,5.196380615234375,-5.5029296875,-5.166473388671875,1,1.0,1.0,2.0,1.0,70.00
2021-09-11 00:42:55.721,0.6909322,0.0,0.0,0.60359895,0.5862092,0.0,0.0,0.5179086,0.9501362,0.0,0.0,0.98132926,0.7190106,0.0,0.0,0.81945693,-0.00798473,0.0,0.0,-0.03565276,709.15753,931.5751,1395.348,684.17584,812.3077,0.2686767578125,-0.0982666015625,0.97271728515625,5.839385986328125,-6.766510009765625,-2.2430419921875,1,1.0,1.0,2.0,1.0,70.00
2021-09-11 00:42:55.852,,,,,,,,,,,,,,,,,,,,,,,,,,,,,,,,,,,,,,/muse/elements/blink
2021-09-11 00:42:56.259,0.77275306,0.0,0.0,0.7304683,0.51945966,0.0,0.0,0.54870373,0.9501362,0.0,0.0,0.98132926,0.7790352,0.0,0.0,0.8789118,-0.026334252,0.0,0.0,-0.058181755,849.3773,883.22345,1600.4396,837.28937,919.4872,0.2952880859375,-0.0850830078125,0.96826171875,6.048736572265625,-3.69354248046875,-2.415008544921875,1,1.0,1.0,2.0,1.0,70.00
2021-09-11 00:42:56.646,,,,,,,,,,,,,,,,,,,,,,,,,,,,,,,,,,,,,,/muse/elements/jaw_clench
2021-09-11 00:42:56.784,0.8965403,0.0,0.0,0.73531115,0.2061047,0.0,0.0,0.41872302,0.6494353,0.0,0.0,0.8492039,0.6088581,0.0,0.0,0.71869886,0.065046936,0.0,0.0,0.113875374,811.50183,875.16486,1147.9487,809.89014,622.1245,0.3031005859375,-0.096435546875,0.95916748046875,5.75714111328125,-3.386993408203125,-1.55517578125,1,1.0,1.0,2.0,1.0,70.00
2021-09-11 00:42:57.299,0.5199745,0.0,0.0,0.31186303,0.19279034,0.0,0.0,3.4835987E-4,0.41151303,0.0,0.0,0.4149861,0.58557063,0.0,0.0,0.38058499,0.27535036,0.0,0.0,-0.029782051,768.3883,838.0952,223.62637,775.2381,580.2198,0.2913818359375,-0.09686279296875,0.9703369140625,5.899200439453125,-3.289794921875,-2.27294921875,1,1.0,1.0,2.0,1.0,70.00
2021-09-11 00:42:57.698,,,,,,,,,,,,,,,,,,,,,,,,,,,,,,,,,,,,,,/muse/elements/jaw_clench
2021-09-11 00:42:57.812,0.541677,0.0,0.0,0.30590564,0.35052127,0.0,0.0,0.23141672,0.49126515,0.0,0.0,0.69129765,0.48359323,0.0,0.0,0.34850183,0.26957753,0.0,0.0,-0.08275596,761.53845,725.6777,163.58974,766.77655,591.0989,0.2864990234375,-0.08697509765625,0.96868896484375,6.3104248046875,-3.33465576171875,-2.145843505859375,1,1.0,1.0,2.0,1.0,70.00
2021-09-11 00:42:58.334,0.4222903,0.0,0.0,0.23126686,0.3239477,0.0,0.0,0.18172094,0.54399717,0.0,0.0,0.69795763,0.41917983,0.0,0.0,0.32239246,0.1649858,0.0,0.0,-0.1416509,822.7839,708.3516,1098.3883,817.1429,755.4945,0.288330078125,-0.0838623046875,0.96978759765625,5.106658935546875,-3.9776611328125,-2.220611572265625,1,1.0,1.0,2.0,1.0,70.00
2021-09-11 00:42:58.611,,,,,,,,,,,,,,,,,,,,,,,,,,,,,,,,,,,,,,/muse/elements/jaw_clench
2021-09-11 00:42:58.881,0.48684895,0.0,0.0,0.44688156,0.4441487,0.0,0.0,0.40819225,0.5798817,0.0,0.0,0.65910167,0.30118597,0.0,0.0,0.25217918,0.0596544,0.0,0.0,0.051708266,841.7216,848.1685,1562.5641,838.49817,1049.2307,0.28564453125,-0.09149169921875,0.96429443359375,5.854339599609375,-3.03558349609375,-2.25799560546875,1,1.0,1.0,2.0,1.0,70.00
2021-09-11 00:42:58.932,,,,,,,,,,,,,,,,,,,,,,,,,,,,,,,,,,,,,,/muse/elements/jaw_clench
2021-09-11 00:42:59.404,0.7933512,0.0,0.0,0.6460474,0.5668438,0.0,0.0,0.50249285,0.83124316,0.0,0.0,0.75024146,0.31174952,0.0,0.0,0.29384738,0.119360305,0.0,0.0,0.2400929,830.4396,754.2857,1402.1978,834.87177,1067.3627,0.278564453125,-0.0850830078125,0.96942138671875,6.53472900390625,-3.925323486328125,-1.891632080078125,1,1.0,1.0,2.0,1.0,70.00
2021-09-11 00:42:59.913,0.86083394,0.0,0.0,0.74836147,0.56675184,0.0,0.0,0.57790434,0.9248461,0.0,0.0,0.74399275,0.5341593,0.0,0.0,0.4716097,0.2889357,0.0,0.0,0.32541364,772.8205,767.98535,231.68498,778.0586,591.9048,0.2750244140625,-0.08770751953125,0.970458984375,5.802001953125,-3.058013916015625,-2.97576904296875,1,1.0,1.0,2.0,1.0,70.00
2021-09-11 00:43:00.201,,,,,,,,,,,,,,,,,,,,,,,,,,,,,,,,,,,,,,/muse/elements/jaw_clench
2021-09-11 00:43:00.428,0.8128574,0.0,0.0,0.6285575,0.4864012,0.0,0.0,0.4312379,1.0160655,0.0,0.0,0.71149945,0.6593575,0.0,0.0,0.5372176,0.3608191,0.0,0.0,0.24751486,751.4652,750.65936,292.52747,760.7326,507.28937,0.275390625,-0.08380126953125,0.97344970703125,5.4730224609375,-3.416900634765625,-2.64678955078125,1,1.0,1.0,4.0,1.0,70.00
2021-09-11 00:43:00.713,,,,,,,,,,,,,,,,,,,,,,,,,,,,,,,,,,,,,,/muse/elements/jaw_clench
2021-09-11 00:43:00.913,,,,,,,,,,,,,,,,,,,,,,,,,,,,,,,,,,,,,,/muse/elements/jaw_clench
2021-09-11 00:43:00.944,0.2634014,0.0,0.0,0.2526137,0.3095863,0.0,0.0,0.31055844,0.860414,0.0,0.0,0.5871965,0.718787,0.0,0.0,0.5053726,0.25988293,0.0,0.0,0.11289156,775.64105,763.95605,240.14651,796.5934,383.1868,0.2781982421875,-0.09130859375,0.97381591796875,6.467437744140625,-4.53094482421875,-1.95892333984375,1,1.0,1.0,2.0,1.0,70.00
2021-09-11 00:43:01.254,,,,,,,,,,,,,,,,,,,,,,,,,,,,,,,,,,,,,,/muse/elements/blink
2021-09-11 00:43:01.466,0.120196864,0.0,0.0,-0.012613913,0.33041322,0.0,0.0,0.32325757,1.1653383,0.0,0.0,0.8918686,0.7232227,0.0,0.0,0.48882058,0.10133789,0.0,0.0,-0.04530538,761.13556,659.59705,293.33334,773.22345,770.80585,0.27520751953125,-0.0875244140625,0.96783447265625,5.480499267578125,-3.521575927734375,-2.534637451171875,1,1.0,1.0,2.0,1.0,70.00
2021-09-11 00:43:01.977,0.1689447,0.0,0.0,0.14892358,0.30680856,0.0,0.0,0.40639877,1.2121612,0.0,0.0,0.94881654,0.84218836,0.0,0.0,0.70859677,0.1250109,0.0,0.0,0.0055223494,836.4835,859.0476,1571.0256,816.7399,890.87915,0.28070068359375,-0.08740234375,0.9718017578125,6.3702392578125,-4.17205810546875,-2.115936279296875,1,1.0,1.0,2.0,1.0,70.00
2021-09-11 00:43:02.146,,,,,,,,,,,,,,,,,,,,,,,,,,,,,,,,,,,,,,/muse/elements/jaw_clench
2021-09-11 00:43:02.456,,,,,,,,,,,,,,,,,,,,,,,,,,,,,,,,,,,,,,/muse/elements/jaw_clench
2021-09-11 00:43:02.499,0.48174983,0.0,0.0,0.68851477,0.4273953,0.0,0.0,0.5211878,1.2003229,0.0,0.0,1.0152397,0.82036716,0.0,0.0,0.7226509,0.1886717,0.0,0.0,0.13398612,849.3773,776.8498,1313.1501,835.2747,1000.87915,0.26824951171875,-0.0567626953125,0.97509765625,9.712371826171875,-2.97576904296875,0.665435791015625,1,1.0,1.0,2.0,1.0,70.00
2021-09-11 00:43:03.020,0.4722833,0.0,0.0,0.7553854,0.4449455,0.0,0.0,0.51208633,1.2087294,0.0,0.0,0.99966645,0.7493776,0.0,0.0,0.6783265,0.28386545,0.0,0.0,0.3663846,843.73627,828.4249,1616.5568,825.6044,1077.033,0.267822265625,-0.042724609375,0.97607421875,5.674896240234375,-4.11224365234375,-2.100982666015625,1,1.0,1.0,2.0,1.0,70.00
2021-09-11 00:43:03.546,0.40675375,0.0,0.0,0.7448949,0.48719826,0.0,0.0,0.49386227,0.9763956,0.0,0.0,0.891784,0.5364648,0.0,0.0,0.40344837,0.23171891,0.0,0.0,0.37748793,755.89746,749.45056,150.69597,773.6264,485.53113,0.26300048828125,-0.04803466796875,0.9776611328125,5.0543212890625,-3.45428466796875,-2.40753173828125,1,1.0,1.0,2.0,1.0,70.00
2021-09-11 00:43:04.061,0.07813699,0.0,0.0,0.4250603,0.2862032,0.0,0.0,0.22236094,0.6928192,0.0,0.0,0.7410298,0.5564175,0.0,0.0,0.3912414,0.16132039,0.0,0.0,0.25856417,862.27106,821.5751,1487.619,834.0659,988.3883,0.26885986328125,-0.05303955078125,0.97613525390625,5.75714111328125,-3.4393310546875,-3.03558349609375,1,1.0,1.0,4.0,1.0,70.00
2021-09-11 00:43:04.608,0.15925159,0.0,0.0,0.29086325,0.37139916,0.0,0.0,0.11000412,0.694991,0.0,0.0,0.38287067,0.55093354,0.0,0.0,0.35090327,-0.004755862,0.0,0.0,0.03503855,842.1245,828.022,1584.7252,828.8278,843.73627,0.26727294921875,-0.0556640625,0.97430419921875,5.555267333984375,-4.47113037109375,-1.98883056640625,1,1.0,1.0,4.0,1.0,70.00
2021-09-11 00:43:04.911,,,,,,,,,,,,,,,,,,,,,,,,,,,,,,,,,,,,,,/muse/elements/jaw_clench
2021-09-11 00:43:05.133,0.39321733,0.0,0.0,0.37485284,0.3824031,0.0,0.0,0.22901754,0.54626524,0.0,0.0,0.30168527,0.54471123,0.0,0.0,0.42074347,0.11186604,0.0,0.0,0.06745441,800.2198,619.304,791.3553,817.9487,934.3956,0.2662353515625,-0.0545654296875,0.9774169921875,5.749664306640625,-3.349609375,-2.452392578125,1,1.0,1.0,2.0,1.0,70.00
2021-09-11 00:43:05.656,0.558263,0.0,0.0,0.55910707,0.58088887,0.0,0.0,0.40070227,1.0750269,0.0,0.0,0.36958638,0.59942645,0.0,0.0,0.42389396,0.25061807,0.0,0.0,0.17792304,771.6117,695.8608,373.9194,773.22345,461.35532,0.26763916015625,-0.05657958984375,0.97705078125,5.5926513671875,-3.925323486328125,-2.07855224609375,1,1.0,1.0,2.0,1.0,70.00
2021-09-11 00:43:05.731,,,,,,,,,,,,,,,,,,,,,,,,,,,,,,,,,,,,,,/muse/elements/jaw_clench
2021-09-11 00:43:06.176,0.51410574,0.0,0.0,0.6785815,0.6051411,0.0,0.0,0.4605346,1.1264977,0.0,0.0,0.5269829,0.63114494,0.0,0.0,0.43293533,0.3204286,0.0,0.0,0.18651223,828.8278,752.674,1459.011,810.293,880.0,0.26641845703125,-0.056396484375,0.97674560546875,5.734710693359375,-3.835601806640625,-2.863616943359375,1,1.0,1.0,2.0,1.0,70.00
2021-09-11 00:43:06.285,,,,,,,,,,,,,,,,,,,,,,,,,,,,,,,,,,,,,,/muse/elements/blink
2021-09-11 00:43:06.693,0.601431,0.0,0.0,0.8809064,0.66063005,0.0,0.0,0.695097,1.1492068,0.0,0.0,0.7933681,0.60977805,0.0,0.0,0.5931771,0.2628603,0.0,0.0,0.24868418,848.5714,900.54944,1452.5641,831.6484,1013.36993,0.26556396484375,-0.06048583984375,0.9794921875,5.7421875,-3.9776611328125,-2.833709716796875,1,1.0,1.0,2.0,1.0,70.00
2021-09-11 00:43:07.213,0.5663538,0.0,0.0,0.78426754,0.5518047,0.0,0.0,0.6745805,1.1392332,0.0,0.0,0.8852772,0.5467903,0.0,0.0,0.56755966,0.27017507,0.0,0.0,0.28177842,799.011,918.2784,850.58606,804.65204,529.45056,0.26763916015625,-0.0562744140625,0.98065185546875,5.330963134765625,-3.715972900390625,-2.504730224609375,1,1.0,1.0,4.0,1.0,70.00
2021-09-11 00:43:07.656,,,,,,,,,,,,,,,,,,,,,,,,,,,,,,,,,,,,,,/muse/elements/jaw_clench
2021-09-11 00:43:07.743,0.6620861,0.0,0.0,0.8601163,0.6333208,0.0,0.0,0.84674233,0.8097138,0.0,0.0,0.9012019,0.5714601,0.0,0.0,0.749203,0.36452317,0.0,0.0,0.3414967,751.4652,714.7985,55.604397,771.2088,560.07324,0.26947021484375,-0.0633544921875,0.9774169921875,5.7421875,-3.880462646484375,-2.355194091796875,1,1.0,1.0,4.0,1.0,70.00
2021-09-11 00:43:08.255,0.4926077,0.0,0.0,0.61698633,0.47544038,0.0,0.0,0.71786964,0.67540985,0.0,0.0,0.81599706,0.530177,0.0,0.0,0.71439785,0.38175535,0.0,0.0,0.23656422,774.0293,886.8498,455.7143,780.07324,493.1868,0.27001953125,-0.06488037109375,0.97515869140625,5.42816162109375,-3.925323486328125,-2.295379638671875,1,1.0,1.0,4.0,1.0,70.00
2021-09-11 00:43:08.772,0.3331334,0.0,0.0,0.4621315,0.50390255,0.0,0.0,0.73621047,0.50107336,0.0,0.0,0.99912655,0.52134573,0.0,0.0,0.68307364,0.30365247,0.0,0.0,0.12461096,853.00366,817.9487,1645.9707,832.8571,1033.5165,0.25921630859375,-0.064697265625,0.97540283203125,5.62255859375,-3.715972900390625,-2.7813720703125,1,1.0,1.0,2.0,1.0,70.00
2021-09-11 00:43:08.891,,,,,,,,,,,,,,,,,,,,,,,,,,,,,,,,,,,,,,/muse/elements/blink
2021-09-11 00:43:09.288,0.080850236,0.0,0.0,0.2731884,0.39915535,0.0,0.0,0.60530204,0.33340722,0.0,0.0,0.99952567,0.5006125,0.0,0.0,0.5309504,0.18673396,0.0,0.0,0.042452425,845.7509,849.7802,1269.6337,823.1868,894.5055,0.26861572265625,-0.06439208984375,0.97198486328125,5.9814453125,-4.32159423828125,-2.2430419921875,1,1.0,1.0,2.0,1.0,70.00
2021-09-11 00:43:09.810,-0.15527396,0.0,0.0,0.3138102,0.41387066,0.0,0.0,0.5782162,0.50663674,0.0,0.0,0.99952567,0.63159525,0.0,0.0,0.5115889,0.2094246,0.0,0.0,0.17767042,785.31134,928.7546,500.8425,796.5934,843.3333,0.27056884765625,-0.0628662109375,0.97747802734375,5.99639892578125,-3.887939453125,-2.392578125,1,1.0,1.0,2.0,1.0,70.00
2021-09-11 00:43:10.344,-0.02140634,0.0,0.0,0.24389638,0.36683792,0.0,0.0,0.399924,0.5729532,0.0,0.0,0.7786238,0.68331856,0.0,0.0,0.5555027,0.18786752,0.0,0.0,0.2232605,747.4359,725.2747,220.40292,759.12085,442.82053,0.26416015625,-0.06671142578125,0.97796630859375,5.323486328125,-3.7982177734375,-3.12530517578125,1,1.0,1.0,2.0,1.0,70.00
2021-09-11 00:43:10.857,0.36911866,0.0,0.0,0.11086197,0.32848155,0.0,0.0,0.24060887,0.75933623,0.0,0.0,0.66887635,0.6859145,0.0,0.0,0.608057,0.2257556,0.0,0.0,0.2529875,762.3443,830.0366,245.78755,780.07324,477.47253,0.2733154296875,-0.07086181640625,0.9775390625,6.53472900390625,-4.239349365234375,-2.16827392578125,1,1.0,1.0,4.0,1.0,70.00
2021-09-11 00:43:10.893,,,,,,,,,,,,,,,,,,,,,,,,,,,,,,,,,,,,,,/muse/elements/jaw_clench
2021-09-11 00:43:11.364,0.47429347,0.0,0.0,0.23456834,0.28355846,0.0,0.0,0.2648582,0.75405854,0.0,0.0,0.69756657,0.6210263,0.0,0.0,0.59767884,0.18253164,0.0,0.0,0.20759405,760.7326,773.6264,436.77655,767.1795,511.72162,0.27264404296875,-0.06488037109375,0.98284912109375,5.854339599609375,-3.506622314453125,-2.43743896484375,1,1.0,1.0,4.0,1.0,70.00
2021-09-11 00:43:11.516,,,,,,,,,,,,,,,,,,,,,,,,,,,,,,,,,,,,,,/muse/elements/jaw_clench
2021-09-11 00:43:11.877,0.48855004,0.0,0.0,0.2808581,0.13908863,0.0,0.0,0.28411984,0.75287515,0.0,0.0,0.69324815,0.53458357,0.0,0.0,0.5945229,0.30618423,0.0,0.0,0.19528812,823.9927,728.49817,1159.6337,807.0696,922.3077,0.26690673828125,-0.06927490234375,0.975830078125,5.75714111328125,-4.3963623046875,-2.474822998046875,1,1.0,1.0,2.0,1.0,70.00
2021-09-11 00:43:12.310,,,,,,,,,,,,,,,,,,,,,,,,,,,,,,,,,,,,,,/muse/elements/jaw_clench
2021-09-11 00:43:12.417,0.39390004,0.0,0.0,0.24916047,0.002520105,0.0,0.0,0.23139231,0.7044503,0.0,0.0,0.72609717,0.54516196,0.0,0.0,0.5275452,0.28662884,0.0,0.0,0.13715395,753.0769,817.1429,333.62637,767.5824,667.6557,0.26812744140625,-0.0684814453125,0.97784423828125,5.5926513671875,-3.93280029296875,-2.071075439453125,1,1.0,1.0,4.0,1.0,70.00
2021-09-11 00:43:12.947,0.46609116,0.0,0.0,0.51209146,0.46457493,0.0,0.0,0.34223503,1.1292119,0.0,0.0,0.7331237,0.8674675,0.0,0.0,0.66907805,0.32722604,0.0,0.0,0.15475193,801.4286,862.27106,976.30035,800.2198,605.2015,0.263427734375,-0.0677490234375,0.97625732421875,5.555267333984375,-3.4991455078125,-2.489776611328125,1,1.0,1.0,2.0,1.0,70.00
2021-09-11 00:43:13.013,,,,,,,,,,,,,,,,,,,,,,,,,,,,,,,,,,,,,,/muse/elements/jaw_clench
2021-09-11 00:43:13.486,0.36678928,0.0,0.0,0.56450975,0.5355594,0.0,0.0,0.33796155,1.1294382,0.0,0.0,0.75160027,1.0014462,0.0,0.0,0.69746345,0.25575554,0.0,0.0,0.14946976,751.8681,825.2015,176.88644,765.16486,456.11722,0.274169921875,-0.0675048828125,0.97601318359375,5.585174560546875,-4.358978271484375,-2.489776611328125,1,1.0,1.0,4.0,1.0,70.00
2021-09-11 00:43:13.962,,,,,,,,,,,,,,,,,,,,,,,,,,,,,,,,,,,,,,/muse/elements/jaw_clench
2021-09-11 00:43:13.991,0.31615344,0.0,0.0,0.63862383,0.48226765,0.0,0.0,0.36199856,1.1294382,0.0,0.0,0.7115329,0.9918326,0.0,0.0,0.7485929,0.31628436,0.0,0.0,0.24186549,769.19415,916.26373,635.42126,782.8938,629.3773,0.2703857421875,-0.06976318359375,0.9761962890625,5.86181640625,-4.000091552734375,-2.07855224609375,1,1.0,1.0,4.0,1.0,70.00
2021-09-11 00:43:14.509,0.26169503,0.0,0.0,0.5216214,0.13153951,0.0,0.0,0.33886722,1.0278281,0.0,0.0,0.58808726,0.8082587,0.0,0.0,0.62068915,0.23881225,0.0,0.0,0.19359867,805.4579,889.67035,1116.9231,805.8608,607.2161,0.26324462890625,-0.072021484375,0.9774169921875,5.7122802734375,-3.835601806640625,-2.52716064453125,1,1.0,1.0,2.0,1.0,70.00
2021-09-11 00:43:14.979,,,,,,,,,,,,,,,,,,,,,,,,,,,,,,,,,,,,,,/muse/elements/jaw_clench
2021-09-11 00:43:15.032,0.46579567,0.0,0.0,0.4666365,0.06103641,0.0,0.0,0.2505519,0.6193644,0.0,0.0,0.4691875,0.60067165,0.0,0.0,0.52548265,0.2482771,0.0,0.0,0.17801203,788.93774,735.7509,965.42126,782.0879,721.2454,0.27130126953125,-0.07275390625,0.97381591796875,5.63751220703125,-3.3795166015625,-2.930908203125,1,1.0,1.0,2.0,1.0,70.00
2021-09-11 00:43:15.582,0.48652464,0.0,0.0,0.3861511,0.028828083,0.0,0.0,0.13975148,0.58250517,0.0,0.0,0.2451026,0.6020387,0.0,0.0,0.41860175,0.23717737,0.0,0.0,0.13400999,757.9121,740.58606,432.74725,764.35895,589.4872,0.2667236328125,-0.073974609375,0.9727783203125,5.226287841796875,-3.78326416015625,-2.5421142578125,1,1.0,1.0,2.0,1.0,70.00
2021-09-11 00:43:16.088,0.4407099,0.0,0.0,0.3599049,0.08718836,0.0,0.0,0.02344603,0.5357306,0.0,0.0,0.46202886,0.5409455,0.0,0.0,0.387475,0.30080992,0.0,0.0,0.060487226,840.5128,857.03296,1021.02563,831.6484,903.36993,0.26837158203125,-0.06695556640625,0.97100830078125,5.72723388671875,-3.30474853515625,-2.041168212890625,1,1.0,1.0,2.0,1.0,70.00
2021-09-11 00:43:16.161,,,,,,,,,,,,,,,,,,,,,,,,,,,,,,,,,,,,,,/muse/elements/blink
2021-09-11 00:43:16.607,0.32411692,0.0,0.0,0.39876103,-0.013430734,0.0,0.0,0.08839448,0.43728215,0.0,0.0,0.45999116,0.4880684,0.0,0.0,0.3625928,0.24299878,0.0,0.0,-0.036906745,770.0,831.2454,337.25275,782.49084,402.9304,0.271728515625,-0.0714111328125,0.9749755859375,5.921630859375,-4.0374755859375,-2.415008544921875,1,1.0,1.0,2.0,1.0,70.00
2021-09-11 00:43:17.128,0.17903177,0.0,0.0,0.43184918,0.17089988,0.0,0.0,0.25257578,0.38295147,0.0,0.0,0.45424497,0.45334822,0.0,0.0,0.44376028,0.19860205,0.0,0.0,-0.22193311,739.7802,718.8278,233.2967,751.06226,512.1245,0.26788330078125,-0.07501220703125,0.97607421875,5.7720947265625,-4.1571044921875,-2.385101318359375,1,1.0,1.0,4.0,1.0,70.00
2021-09-11 00:43:17.156,,,,,,,,,,,,,,,,,,,,,,,,,,,,,,,,,,,,,,/muse/elements/jaw_clench
2021-09-11 00:43:17.657,0.25045836,0.0,0.0,0.49449003,0.508968,0.0,0.0,0.70824194,0.61937624,0.0,0.0,0.68696785,0.5557123,0.0,0.0,0.65181124,0.111841016,0.0,0.0,0.017612584,810.696,724.4689,1103.2234,804.65204,909.011,0.26361083984375,-0.07586669921875,0.9742431640625,4.83001708984375,-3.416900634765625,-3.36456298828125,1,1.0,1.0,4.0,1.0,70.00
2021-09-11 00:43:18.171,0.24282089,0.0,0.0,0.5739725,0.55601245,0.0,0.0,0.7411872,0.8808553,0.0,0.0,0.861753,0.55861795,0.0,0.0,0.7747611,0.32537413,0.0,0.0,0.24293587,751.06226,689.81683,464.1758,773.6264,571.75824,0.2650146484375,-0.07037353515625,0.97857666015625,5.62255859375,-3.57391357421875,-1.9439697265625,1,1.0,1.0,2.0,1.0,70.00
2021-09-11 00:43:18.706,0.36510858,0.0,0.0,0.5284924,0.54156554,0.0,0.0,0.77424115,0.8908631,0.0,0.0,0.9322026,0.61028713,0.0,0.0,0.7624226,0.36402464,0.0,0.0,0.20631379,835.6777,754.2857,1237.3993,818.7546,1011.75824,0.266845703125,-0.0770263671875,0.9715576171875,5.93658447265625,-3.715972900390625,-2.4822998046875,1,1.0,1.0,2.0,1.0,70.00
2021-09-11 00:43:19.230,0.30075118,0.0,0.0,0.4021368,0.48676848,0.0,0.0,0.71368146,0.89357954,0.0,0.0,0.9283829,0.6029536,0.0,0.0,0.68161625,0.37323907,0.0,0.0,0.1661642,844.1392,900.54944,1638.3151,821.978,923.5165,0.26824951171875,-0.0673828125,0.980224609375,5.8319091796875,-3.820648193359375,-2.4224853515625,1,1.0,1.0,4.0,1.0,70.00
2021-09-11 00:43:19.739,0.27711666,0.0,0.0,0.30825925,0.46607563,0.0,0.0,0.69453967,0.97957444,0.0,0.0,0.77622557,0.65205246,0.0,0.0,0.5837839,0.28545165,0.0,0.0,0.1234932,751.4652,763.1502,240.95238,764.35895,407.36264,0.26318359375,-0.071533203125,0.97576904296875,5.7122802734375,-3.90289306640625,-2.1234130859375,1,1.0,1.0,4.0,1.0,70.00
2021-09-11 00:43:19.773,,,,,,,,,,,,,,,,,,,,,,,,,,,,,,,,,,,,,,/muse/elements/jaw_clench
2021-09-11 00:43:19.909,,,,,,,,,,,,,,,,,,,,,,,,,,,,,,,,,,,,,,/muse/elements/jaw_clench
2021-09-11 00:43:20.257,0.011857861,0.0,0.0,0.24878944,0.3397038,0.0,0.0,0.5170011,0.98972285,0.0,0.0,0.7083049,0.59434605,0.0,0.0,0.4404468,0.08985241,0.0,0.0,0.07725308,759.92676,770.80585,83.809525,792.1612,861.4652,0.26934814453125,-0.07159423828125,0.9757080078125,5.704803466796875,-3.54400634765625,-2.056121826171875,1,1.0,1.0,4.0,1.0,70.00
2021-09-11 00:43:20.769,0.07193961,0.0,0.0,0.25747895,0.26523802,0.0,0.0,0.39400628,0.99302167,0.0,0.0,0.61328834,0.59186125,0.0,0.0,0.5198016,0.090100005,0.0,0.0,0.18356834,751.4652,734.1392,235.31136,756.7033,404.5421,0.2586669921875,-0.07379150390625,0.97760009765625,6.452484130859375,-3.99261474609375,-2.684173583984375,1,1.0,1.0,4.0,1.0,70.00
2021-09-11 00:43:20.913,,,,,,,,,,,,,,,,,,,,,,,,,,,,,,,,,,,,,,/muse/elements/jaw_clench
2021-09-11 00:43:21.285,0.14250478,0.0,0.0,0.15825559,0.07513851,0.0,0.0,0.16376698,0.8732596,0.0,0.0,0.406484,0.48960808,0.0,0.0,0.5130452,0.1303484,0.0,0.0,0.097788095,806.26373,632.1978,874.35895,814.3223,826.8132,0.2646484375,-0.06390380859375,0.97509765625,5.42816162109375,-4.284210205078125,-3.00567626953125,1,1.0,1.0,2.0,1.0,70.00
2021-09-11 00:43:21.326,,,,,,,,,,,,,,,,,,,,,,,,,,,,,,,,,,,,,,/muse/elements/jaw_clench
2021-09-11 00:43:21.824,0.33849072,0.0,0.0,0.16353412,0.047027595,0.0,0.0,0.08371815,0.6323939,0.0,0.0,0.37510946,0.40457594,0.0,0.0,0.5171031,0.27788028,0.0,0.0,0.08688371,851.39197,870.32965,1263.5897,845.7509,1392.9304,0.2630615234375,-0.07745361328125,0.97784423828125,4.837493896484375,-3.768310546875,-3.15521240234375,1,1.0,1.0,4.0,1.0,70.00
2021-09-11 00:43:21.956,,,,,,,,,,,,,,,,,,,,,,,,,,,,,,,,,,,,,,/muse/elements/jaw_clench
2021-09-11 00:43:22.338,0.5312553,0.0,0.0,0.5065664,0.124866165,0.0,0.0,0.27954578,0.5337461,0.0,0.0,0.39428794,0.55064195,0.0,0.0,0.57465416,0.34198308,0.0,0.0,0.08507767,768.7912,680.14655,962.1978,777.6557,758.315,0.2669677734375,-0.07330322265625,0.97711181640625,5.914154052734375,-4.44122314453125,-1.39068603515625,1,1.0,1.0,4.0,1.0,70.00
2021-09-11 00:43:22.509,,,,,,,,,,,,,,,,,,,,,,,,,,,,,,,,,,,,,,/muse/elements/jaw_clench
2021-09-11 00:43:22.675,,,,,,,,,,,,,,,,,,,,,,,,,,,,,,,,,,,,,,/muse/elements/jaw_clench
2021-09-11 00:43:22.843,0.541771,0.0,0.0,0.62200546,0.21335295,0.0,0.0,0.25448173,0.5107797,0.0,0.0,0.39422897,0.8171662,0.0,0.0,0.7845657,0.33990952,0.0,0.0,0.18954907,838.49817,809.0842,1610.1099,836.8865,977.50916,0.265869140625,-0.0667724609375,0.97576904296875,5.136566162109375,-3.6187744140625,-2.385101318359375,1,1.0,1.0,4.0,1.0,70.00
2021-09-11 00:43:23.371,0.49725103,0.0,0.0,0.6778613,0.33579496,0.0,0.0,0.2678434,0.5263191,0.0,0.0,0.43489447,0.8455994,0.0,0.0,0.7755882,0.25779653,0.0,0.0,0.20838831,788.5348,889.2674,562.0879,794.57874,584.65204,0.263671875,-0.07135009765625,0.97308349609375,6.02630615234375,-3.75335693359375,-2.833709716796875,1,1.0,1.0,4.0,1.0,65.00
2021-09-11 00:43:23.860,,,,,,,,,,,,,,,,,,,,,,,,,,,,,,,,,,,,,,/muse/elements/jaw_clench
2021-09-11 00:43:23.887,0.47170642,0.0,0.0,0.5669423,0.5123452,0.0,0.0,0.16987781,0.72874343,0.0,0.0,0.6940614,0.77409685,0.0,0.0,0.71672714,0.24380425,0.0,0.0,0.09988477,854.61536,871.53845,1239.414,836.8865,954.1392,0.25762939453125,-0.06939697265625,0.977783203125,6.160888671875,-4.18701171875,-1.697235107421875,1,1.0,1.0,4.0,1.0,65.00
2021-09-11 00:43:24.397,0.38704374,0.0,0.0,0.4365902,0.4785892,0.0,0.0,0.15478009,0.7804561,0.0,0.0,0.6940614,0.5908872,0.0,0.0,0.5512475,0.21458887,0.0,0.0,-0.004589659,776.04395,812.71063,265.1282,797.8022,688.20514,0.263916015625,-0.066650390625,0.98052978515625,5.72723388671875,-4.68048095703125,-2.310333251953125,1,1.0,1.0,4.0,1.0,65.00
2021-09-11 00:43:24.608,,,,,,,,,,,,,,,,,,,,,,,,,,,,,,,,,,,,,,/muse/elements/jaw_clench
2021-09-11 00:43:24.792,,,,,,,,,,,,,,,,,,,,,,,,,,,,,,,,,,,,,,/muse/elements/jaw_clench
2021-09-11 00:43:24.927,0.47082195,0.0,0.0,0.36399788,0.3207814,0.0,0.0,0.093649276,0.8094159,0.0,0.0,0.6803993,0.52554065,0.0,0.0,0.4667402,0.27616554,0.0,0.0,-0.022348773,807.47253,739.7802,1214.8352,790.54944,731.7216,0.26129150390625,-0.06951904296875,0.97412109375,5.824432373046875,-3.5589599609375,-2.392578125,1,1.0,1.0,4.0,1.0,65.00
2021-09-11 00:43:25.269,,,,,,,,,,,,,,,,,,,,,,,,,,,,,,,,,,,,,,/muse/elements/blink
2021-09-11 00:43:25.455,0.43602288,0.0,0.0,0.48303676,-0.097150326,0.0,0.0,0.026195003,0.8103182,0.0,0.0,0.5119696,0.5155707,0.0,0.0,0.6556615,0.30358425,0.0,0.0,0.1308956,860.2564,705.5311,1292.6007,844.1392,1189.4506,0.27740478515625,-0.07086181640625,0.975830078125,4.74029541015625,-7.55157470703125,-3.09539794921875,1,1.0,1.0,4.0,1.0,65.00
2021-09-11 00:43:25.817,,,,,,,,,,,,,,,,,,,,,,,,,,,,,,,,,,,,,,/muse/elements/jaw_clench
2021-09-11 00:43:25.989,0.5268668,0.0,0.0,0.6223386,7.3434226E-4,0.0,0.0,0.13988812,0.65932256,0.0,0.0,0.49448213,0.46931523,0.0,0.0,0.74563646,0.3734507,0.0,0.0,0.23580584,781.28204,738.5714,869.92676,801.02563,615.2747,0.294921875,-0.07177734375,0.97003173828125,5.2337646484375,-2.654266357421875,-1.80938720703125,1,1.0,1.0,4.0,1.0,65.00
2021-09-11 00:43:25.994,,,,,,,,,,,,,,,,,,,,,,,,,,,,,,,,,,,,,,/muse/elements/jaw_clench
2021-09-11 00:43:26.304,,,,,,,,,,,,,,,,,,,,,,,,,,,,,,,,,,,,,,/muse/elements/jaw_clench
2021-09-11 00:43:26.510,,,,,,,,,,,,,,,,,,,,,,,,,,,,,,,,,,,,,,/muse/elements/jaw_clench
2021-09-11 00:43:26.512,0.533173,0.0,0.0,0.72204536,0.057823896,0.0,0.0,0.22301054,0.5834768,0.0,0.0,0.49448213,0.4345728,0.0,0.0,0.9025989,0.44035715,0.0,0.0,0.36790106,763.5531,734.5421,111.20879,767.98535,457.72894,0.2882080078125,-0.07342529296875,0.97119140625,5.630035400390625,-3.985137939453125,-1.532745361328125,1,1.0,1.0,4.0,1.0,65.00
2021-09-11 00:43:27.039,0.32514203,0.0,0.0,0.4222902,0.062774494,0.0,0.0,0.30664912,0.78511536,0.0,0.0,0.5667996,0.48965016,0.0,0.0,0.54825795,0.034138512,0.0,0.0,-0.23556189,855.0183,900.54944,1602.0513,832.8571,1103.2234,0.2857666015625,-0.06964111328125,0.9652099609375,5.869293212890625,-2.572021484375,-2.46734619140625,1,1.0,1.0,4.0,1.0,65.00
2021-09-11 00:43:27.141,,,,,,,,,,,,,,,,,,,,,,,,,,,,,,,,,,,,,,/muse/elements/jaw_clench
2021-09-11 00:43:27.336,,,,,,,,,,,,,,,,,,,,,,,,,,,,,,,,,,,,,,/muse/elements/jaw_clench
2021-09-11 00:43:27.551,0.42135713,0.0,0.0,0.52004635,-8.516186E-5,0.0,0.0,0.25188425,0.78511536,0.0,0.0,0.58391595,0.4985203,0.0,0.0,0.48841432,0.10095351,0.0,0.0,0.08782188,817.1429,913.44324,1259.1575,820.3663,829.2308,0.28411865234375,-0.0638427734375,0.97210693359375,6.258087158203125,-4.269256591796875,-2.19818115234375,1,1.0,1.0,4.0,1.0,65.00
2021-09-11 00:43:27.846,,,,,,,,,,,,,,,,,,,,,,,,,,,,,,,,,,,,,,/muse/elements/blink
2021-09-11 00:43:27.953,,,,,,,,,,,,,,,,,,,,,,,,,,,,,,,,,,,,,,/muse/elements/jaw_clench
2021-09-11 00:43:28.078,0.4658756,0.0,0.0,0.68086475,0.39993215,0.0,0.0,0.43546367,0.8388964,0.0,0.0,0.7426033,0.5562053,0.0,0.0,0.4468496,0.31859785,0.0,0.0,0.19805992,841.7216,817.9487,1526.3004,819.9634,1172.1245,0.28131103515625,-0.06121826171875,0.9747314453125,5.764617919921875,-3.072967529296875,-1.89910888671875,1,1.0,1.0,4.0,1.0,65.00
2021-09-11 00:43:28.603,0.656397,0.0,0.0,0.9002223,0.76470613,0.0,0.0,0.5782601,0.8142901,0.0,0.0,0.85219675,0.706519,0.0,0.0,0.6040851,0.3892982,0.0,0.0,0.29212376,855.82416,925.9341,1448.5348,848.5714,869.5238,0.2755126953125,-0.066162109375,0.9747314453125,5.375823974609375,-5.001983642578125,-1.614990234375,1,1.0,1.0,4.0,1.0,65.00
2021-09-11 00:43:29.139,0.7464066,0.0,0.0,0.9380724,0.90894926,0.0,0.0,0.59600455,0.81736183,0.0,0.0,0.85219675,0.767314,0.0,0.0,0.6519491,0.3798481,0.0,0.0,0.24005485,817.1429,767.1795,668.86444,816.7399,821.1722,0.27349853515625,-0.06658935546875,0.98046875,6.646881103515625,-4.373931884765625,-1.951446533203125,1,1.0,1.0,4.0,1.0,65.00
2021-09-11 00:43:29.648,0.9327441,0.0,0.0,0.9548425,0.8836438,0.0,0.0,0.54620045,0.9297866,0.0,0.0,0.86346793,0.80032283,0.0,0.0,0.6647858,0.30418378,0.0,0.0,0.17310111,779.2674,874.7619,292.52747,783.69965,531.4652,0.28033447265625,-0.0711669921875,0.97686767578125,6.452484130859375,-4.613189697265625,-1.652374267578125,1,1.0,1.0,4.0,1.0,65.00
2021-09-11 00:43:29.692,,,,,,,,,,,,,,,,,,,,,,,,,,,,,,,,,,,,,,/muse/elements/jaw_clench
2021-09-11 00:43:29.890,,,,,,,,,,,,,,,,,,,,,,,,,,,,,,,,,,,,,,/muse/elements/blink
2021-09-11 00:43:30.191,0.86034685,0.0,0.0,0.7555199,0.74570274,0.0,0.0,0.39389703,1.1631054,0.0,0.0,0.6928603,0.7704911,0.0,0.0,0.5033769,0.32847947,0.0,0.0,0.09316915,760.7326,737.76556,165.6044,766.77655,334.43222,0.268310546875,-0.06585693359375,0.97174072265625,7.902984619140625,-3.297271728515625,-1.323394775390625,1,1.0,1.0,4.0,1.0,65.00
2021-09-11 00:43:30.707,0.9277508,0.0,0.0,1.1120923,0.77691615,0.0,0.0,0.90968645,1.2342132,0.0,0.0,1.407396,0.79098433,0.0,0.0,0.5048703,0.4250609,0.0,0.0,0.10024929,769.19415,668.46155,587.0696,780.07324,717.619,0.2703857421875,-0.03704833984375,0.97613525390625,14.40032958984375,-4.007568359375,3.94775390625,1,1.0,1.0,4.0,1.0,65.00
2021-09-11 00:43:30.789,,,,,,,,,,,,,,,,,,,,,,,,,,,,,,,,,,,,,,/muse/elements/blink
2021-09-11 00:43:30.789,,,,,,,,,,,,,,,,,,,,,,,,,,,,,,,,,,,,,,/muse/elements/jaw_clench
2021-09-11 00:43:31.214,0.9587851,0.0,0.0,1.5902164,0.9832205,0.0,0.0,1.365173,1.4112127,0.0,0.0,1.4414967,0.9319707,0.0,0.0,0.90194887,0.46776664,0.0,0.0,0.39896813,700.696,838.0952,230.07326,710.3663,499.6337,0.277587890625,-0.00701904296875,0.97637939453125,6.228179931640625,-4.18701171875,-2.265472412109375,1,1.0,1.0,4.0,1.0,65.00
2021-09-11 00:43:31.353,,,,,,,,,,,,,,,,,,,,,,,,,,,,,,,,,,,,,,/muse/elements/blink
2021-09-11 00:43:31.718,1.0536145,0.0,0.0,1.5528991,1.0108222,0.0,0.0,1.3236952,1.4049516,0.0,0.0,1.3314458,0.9902423,0.0,0.0,0.9492501,0.4751085,0.0,0.0,0.4068143,765.9707,684.57874,367.0696,759.92676,559.67035,0.26953125,3.662109375E-4,0.97802734375,5.510406494140625,-3.491668701171875,-2.49725341796875,1,1.0,1.0,4.0,1.0,65.00
2021-09-11 00:43:32.250,1.0854001,0.0,0.0,1.4056517,1.0518119,0.0,0.0,1.2555437,1.4055068,0.0,0.0,1.3314458,1.06937,0.0,0.0,0.9157304,0.47766793,0.0,0.0,0.45124802,804.2491,752.674,803.44324,811.0989,1068.1685,0.27276611328125,-0.00164794921875,0.9814453125,5.09918212890625,-4.0972900390625,-2.534637451171875,1,1.0,1.0,4.0,1.0,65.00
2021-09-11 00:43:32.756,1.0691638,0.0,0.0,0.9735108,0.8855689,0.0,0.0,0.97631925,1.2549555,0.0,0.0,1.1726797,1.030904,0.0,0.0,0.8900517,0.43750674,0.0,0.0,0.4995107,859.45056,893.2967,91.4652,824.3956,865.89746,0.27130126953125,0.00177001953125,0.97564697265625,6.033782958984375,-3.828125,-2.22808837890625,1,1.0,1.0,4.0,1.0,65.00
2021-09-11 00:43:33.281,0.9172412,0.0,0.0,0.7747602,0.6778807,0.0,0.0,0.9084579,1.2263875,0.0,0.0,1.0877072,0.965377,0.0,0.0,0.7905246,0.33479622,0.0,0.0,0.43429404,853.8095,814.7253,1280.9158,839.304,975.09155,0.267822265625,-0.0032958984375,0.978759765625,5.944061279296875,-4.246826171875,-2.03369140625,1,1.0,1.0,4.0,1.0,65.00
2021-09-11 00:43:33.783,0.6836969,0.0,0.0,0.5737525,0.3945556,0.0,0.0,0.6598648,1.1721784,0.0,0.0,0.8885929,0.8591721,0.0,0.0,0.6952223,0.31472912,0.0,0.0,0.37469843,792.96704,884.83514,712.381,797.3993,618.0952,0.27325439453125,4.8828125E-4,0.9833984375,5.921630859375,-3.895416259765625,-2.691650390625,1,1.0,1.0,4.0,1.0,70.00
2021-09-11 00:43:33.935,,,,,,,,,,,,,,,,,,,,,,,,,,,,,,,,,,,,,,/muse/elements/jaw_clench
2021-09-11 00:43:34.307,0.2739002,0.0,0.0,0.51411694,0.12922065,0.0,0.0,0.5836568,0.483238,0.0,0.0,0.8780303,0.72593355,0.0,0.0,0.5691722,0.26194865,0.0,0.0,0.20937152,765.9707,809.4872,353.7729,783.2967,520.58606,0.27899169921875,-0.006591796875,0.97503662109375,5.375823974609375,-4.38140869140625,-2.145843505859375,1,1.0,1.0,4.0,1.0,70.00
2021-09-11 00:43:34.847,0.33353537,0.0,0.0,0.58624,0.29572937,0.0,0.0,0.34530136,1.5547774,0.0,0.0,0.756828,0.840676,0.0,0.0,0.80102587,0.40460578,0.0,0.0,0.16048828,875.56775,800.6227,1531.1355,836.8865,1155.2014,0.2794189453125,-0.00140380859375,0.978759765625,6.377716064453125,-3.850555419921875,-1.996307373046875,1,1.0,1.0,4.0,1.0,70.00
2021-09-11 00:43:34.952,,,,,,,,,,,,,,,,,,,,,,,,,,,,,,,,,,,,,,/muse/elements/jaw_clench
2021-09-11 00:43:35.289,,,,,,,,,,,,,,,,,,,,,,,,,,,,,,,,,,,,,,/muse/elements/jaw_clench
2021-09-11 00:43:35.354,0.68271637,0.0,0.0,0.63290054,0.9570831,0.0,0.0,0.53915715,1.8394879,0.0,0.0,1.1419762,0.98315805,0.0,0.0,0.8744952,0.32648736,0.0,0.0,0.03318527,759.92676,821.978,280.8425,763.95605,406.55676,0.27496337890625,-0.00689697265625,0.974853515625,5.39825439453125,-3.925323486328125,-2.654266357421875,1,1.0,4.0,4.0,1.0,70.00
2021-09-11 00:43:35.724,,,,,,,,,,,,,,,,,,,,,,,,,,,,,,,,,,,,,,/muse/elements/jaw_clench
2021-09-11 00:43:35.892,1.0004634,0.0,0.0,0.86011934,1.130768,0.0,0.0,0.781765,1.8509477,0.0,0.0,1.3925618,1.0109413,0.0,0.0,0.9193495,0.30968365,0.0,0.0,0.10439906,846.9597,734.1392,1518.6447,828.022,1028.2784,0.2701416015625,-0.0079345703125,0.974853515625,5.854339599609375,-3.745880126953125,-2.40753173828125,1,1.0,1.0,4.0,1.0,70.00
2021-09-11 00:43:36.053,,,,,,,,,,,,,,,,,,,,,,,,,,,,,,,,,,,,,,/muse/elements/jaw_clench
2021-09-11 00:43:36.416,1.0205173,0.0,0.0,0.94460547,1.1403788,0.0,0.0,0.79217035,1.8434275,0.0,0.0,1.3903754,0.87098914,0.0,0.0,0.61823714,0.23306419,0.0,0.0,0.2702661,788.93774,740.58606,943.2601,799.011,771.6117,0.273193359375,-0.006591796875,0.9725341796875,5.2337646484375,-4.613189697265625,-2.684173583984375,1,1.0,1.0,4.0,1.0,70.00
2021-09-11 00:43:36.604,,,,,,,,,,,,,,,,,,,,,,,,,,,,,,,,,,,,,,/muse/elements/jaw_clench
2021-09-11 00:43:36.893,,,,,,,,,,,,,,,,,,,,,,,,,,,,,,,,,,,,,,/muse/elements/jaw_clench
2021-09-11 00:43:36.926,1.0014957,0.0,0.0,1.0936697,0.9103799,0.0,0.0,0.8230812,1.3191193,0.0,0.0,1.3903754,0.67748016,0.0,0.0,0.5475146,0.2901681,0.0,0.0,0.4157863,838.49817,780.87915,1603.2601,821.1722,887.6557,0.26678466796875,-0.010009765625,0.9798583984375,5.809478759765625,-3.087921142578125,-2.474822998046875,1,1.0,1.0,4.0,1.0,70.00
2021-09-11 00:43:37.292,,,,,,,,,,,,,,,,,,,,,,,,,,,,,,,,,,,,,,/muse/elements/jaw_clench
2021-09-11 00:43:37.448,0.6887034,0.0,0.0,0.82988423,0.6088969,0.0,0.0,0.45769906,1.0957884,0.0,0.0,0.94486547,0.5928565,0.0,0.0,0.5015332,0.27117637,0.0,0.0,0.30833986,755.89746,784.90845,90.65934,770.80585,556.4469,0.27276611328125,-0.00457763671875,0.98358154296875,5.510406494140625,-3.9178466796875,-2.175750732421875,1,1.0,1.0,4.0,1.0,70.00
2021-09-11 00:43:37.488,,,,,,,,,,,,,,,,,,,,,,,,,,,,,,,,,,,,,,/muse/elements/jaw_clench
2021-09-11 00:43:37.970,1.0445555,0.0,0.0,1.2678719,0.86488014,0.0,0.0,0.98667777,1.2142905,0.0,0.0,1.2591842,0.76525974,0.0,0.0,0.69195265,0.29970616,0.0,0.0,0.14807698,734.94507,702.71063,258.27838,754.68866,445.64102,0.2713623046875,-0.0072021484375,0.9791259765625,5.7720947265625,-3.760833740234375,-1.6748046875,1,1.0,1.0,4.0,1.0,70.00
2021-09-11 00:43:37.975,,,,,,,,,,,,,,,,,,,,,,,,,,,,,,,,,,,,,,/muse/elements/jaw_clench
2021-09-11 00:43:38.210,,,,,,,,,,,,,,,,,,,,,,,,,,,,,,,,,,,,,,/muse/elements/blink
2021-09-11 00:43:38.496,1.109893,0.0,0.0,1.2687352,0.98863995,0.0,0.0,1.0200098,1.2142905,0.0,0.0,1.2591842,0.8476802,0.0,0.0,0.69839746,0.27436358,0.0,0.0,0.05298003,756.7033,768.3883,53.589745,783.2967,532.27106,0.2664794921875,-0.00677490234375,0.9781494140625,5.263671875,-3.78326416015625,-2.370147705078125,1,1.0,1.0,4.0,1.0,70.00
2021-09-11 00:43:38.857,,,,,,,,,,,,,,,,,,,,,,,,,,,,,,,,,,,,,,/muse/elements/jaw_clench
2021-09-11 00:43:39.016,1.3225493,0.0,0.0,1.5171646,1.1603475,0.0,0.0,1.2543751,1.1973282,0.0,0.0,1.2291977,1.0033865,0.0,0.0,0.8028353,0.40115938,0.0,0.0,0.12842403,757.9121,774.43225,230.4762,755.4945,426.7033,0.26751708984375,-0.0062255859375,0.976806640625,4.897308349609375,-3.72344970703125,-2.55706787109375,1,1.0,1.0,4.0,1.0,70.00
2021-09-11 00:43:39.118,,,,,,,,,,,,,,,,,,,,,,,,,,,,,,,,,,,,,,/muse/elements/jaw_clench
2021-09-11 00:43:39.528,1.373956,0.0,0.0,1.5798385,1.1892107,0.0,0.0,1.3007436,1.1778433,0.0,0.0,1.2271365,0.99970293,0.0,0.0,0.80527705,0.3911643,0.0,0.0,0.14982519,842.1245,761.53845,1093.5531,823.9927,671.28204,0.2696533203125,-0.01177978515625,0.97821044921875,5.57769775390625,-3.4991455078125,-2.041168212890625,1,1.0,1.0,4.0,1.0,70.00
2021-09-11 00:43:40.042,0.84099704,0.0,0.0,0.83661294,0.5424341,0.0,0.0,0.63900614,1.0572401,0.0,0.0,1.0801883,0.9520648,0.0,0.0,0.64597386,0.5173967,0.0,0.0,0.23099056,760.7326,688.20514,85.42124,783.69965,696.26373,0.26983642578125,-0.00518798828125,0.98089599609375,6.766510009765625,-4.32159423828125,-1.906585693359375,1,1.0,1.0,4.0,1.0,70.00
2021-09-11 00:43:40.410,,,,,,,,,,,,,,,,,,,,,,,,,,,,,,,,,,,,,,/muse/elements/jaw_clench
2021-09-11 00:43:40.574,0.7271118,0.0,0.0,0.79787916,0.6656943,0.0,0.0,0.7107898,1.0692493,0.0,0.0,1.1268716,0.90539086,0.0,0.0,0.73432624,0.56444615,0.0,0.0,0.25634542,842.9304,925.9341,1302.2711,823.1868,976.7033,0.268310546875,-0.00372314453125,0.974853515625,5.1739501953125,-3.87298583984375,-2.071075439453125,1,1.0,1.0,4.0,1.0,70.00
2021-09-11 00:43:40.853,,,,,,,,,,,,,,,,,,,,,,,,,,,,,,,,,,,,,,/muse/elements/jaw_clench
2021-09-11 00:43:41.083,0.6023238,0.0,0.0,0.6980661,0.7168387,0.0,0.0,0.6944835,1.1041206,0.0,0.0,1.1045327,0.7947797,0.0,0.0,0.7021656,0.5138255,0.0,0.0,0.22447997,799.41394,834.87177,745.42126,808.2784,578.20514,0.26953125,-0.0074462890625,0.980712890625,5.884246826171875,-3.446807861328125,-2.071075439453125,1,1.0,1.0,4.0,1.0,70.00
2021-09-11 00:43:41.221,,,,,,,,,,,,,,,,,,,,,,,,,,,,,,,,,,,,,,/muse/elements/blink
2021-09-11 00:43:41.602,1.0008088,0.0,0.0,0.61972016,0.9524758,0.0,0.0,0.72774786,1.4493499,0.0,0.0,1.0135734,0.77425295,0.0,0.0,0.7212219,0.3751987,0.0,0.0,0.19600347,753.47986,768.7912,157.14285,771.2088,586.26373,0.3251953125,0.029541015625,0.99542236328125,8.710479736328125,-6.62445068359375,4.299163818359375,1,1.0,1.0,4.0,1.0,70.00
2021-09-11 00:43:42.142,1.1348206,0.0,0.0,0.43078902,1.0092005,0.0,0.0,0.60560036,1.3638736,0.0,0.0,0.55727917,0.7503788,0.0,0.0,0.48634648,0.15330283,0.0,0.0,0.030647222,748.24176,789.7436,341.68497,770.40295,585.05493,0.22882080078125,0.01373291015625,0.9814453125,3.656158447265625,2.4224853515625,2.46734619140625,1,1.0,1.0,4.0,1.0,70.00
2021-09-11 00:43:42.656,1.1875199,0.0,0.0,0.43078902,0.9722056,0.0,0.0,0.60560036,1.3642323,0.0,0.0,0.55727917,0.7903325,0.0,0.0,0.48634648,0.4443647,0.0,0.0,0.030647222,767.98535,780.07324,400.51282,774.83514,511.3187,0.21600341796875,0.01019287109375,0.987548828125,6.02630615234375,-2.325286865234375,-1.734619140625,1,1.0,1.0,2.0,1.0,70.00
2021-09-11 00:43:43.168,0.69852006,0.0,0.0,0.38651446,0.4262163,0.0,0.0,0.3694001,0.8169572,0.0,0.0,0.5955528,0.88229144,0.0,0.0,0.5471173,0.46012956,0.0,0.0,0.2093351,740.989,1576.2638,0.0,767.1795,534.68866,0.20526123046875,0.00555419921875,0.99334716796875,5.3533935546875,-3.656158447265625,-3.865509033203125,1,1.0,1.0,4.0,1.0,70.00
2021-09-11 00:43:43.505,,,,,,,,,,,,,,,,,,,,,,,,,,,,,,,,,,,,,,/muse/elements/jaw_clench
2021-09-11 00:43:43.677,0.7452219,0.0,0.0,0.31038874,0.5844133,0.0,0.0,0.42758405,0.9015502,0.0,0.0,0.5955528,0.8142373,0.0,0.0,0.5142583,0.34147188,0.0,0.0,0.1572078,781.28204,182.12454,229.67033,781.28204,660.0,0.1961669921875,-0.00634765625,0.994873046875,5.2337646484375,-3.491668701171875,-1.697235107421875,1,1.0,4.0,2.0,1.0,65.00
2021-09-11 00:43:43.891,,,,,,,,,,,,,,,,,,,,,,,,,,,,,,,,,,,,,,/muse/elements/jaw_clench
2021-09-11 00:43:44.130,,,,,,,,,,,,,,,,,,,,,,,,,,,,,,,,,,,,,,/muse/elements/jaw_clench
2021-09-11 00:43:44.225,0.8213147,0.0,0.0,0.27838165,0.6098209,0.0,0.0,0.35889912,0.9619687,0.0,0.0,0.39110014,0.7444786,0.0,0.0,0.54306495,0.18126382,0.0,0.0,0.097939655,847.76556,1620.989,1620.989,836.08057,1171.3187,0.1947021484375,-0.01904296875,0.99432373046875,3.887939453125,-2.82623291015625,-1.158905029296875,1,1.0,4.0,4.0,1.0,65.00
2021-09-11 00:43:44.604,,,,,,,,,,,,,,,,,,,,,,,,,,,,,,,,,,,,,,/muse/elements/jaw_clench
2021-09-11 00:43:44.731,0.84326345,0.0,0.0,0.4713406,0.6164734,0.0,0.0,0.32160175,0.93345314,0.0,0.0,0.31343278,0.63791823,0.0,0.0,0.5546473,0.19730818,0.0,0.0,0.10413225,863.0769,1492.8572,1621.392,828.022,844.94507,0.16357421875,-0.04425048828125,0.99371337890625,4.62066650390625,-3.15521240234375,-8.314208984375,1,1.0,4.0,4.0,1.0,65.00
2021-09-11 00:43:45.204,,,,,,,,,,,,,,,,,,,,,,,,,,,,,,,,,,,,,,/muse/elements/jaw_clench
2021-09-11 00:43:45.248,0.7185928,0.0,0.0,0.55345047,0.565577,0.0,0.0,0.4129964,1.2165667,0.0,0.0,0.69825685,0.80570614,0.0,0.0,0.6340423,0.18828973,0.0,0.0,0.05557845,830.0366,988.7912,697.47253,815.5311,668.46155,0.22393798828125,-0.0740966796875,0.98907470703125,3.48419189453125,-6.811370849609375,-4.306640625,1,1.0,4.0,4.0,1.0,65.00
2021-09-11 00:43:45.752,0.51995987,0.0,0.0,0.53541195,0.63510716,0.0,0.0,0.5360783,1.3994676,0.0,0.0,0.72860456,0.8248578,0.0,0.0,0.7994954,0.14133982,0.0,0.0,0.06930531,762.3443,406.55676,583.8461,775.2381,583.0403,0.2030029296875,-0.0518798828125,0.997314453125,6.258087158203125,-6.542205810546875,-0.740203857421875,1,1.0,2.0,4.0,1.0,65.00
2021-09-11 00:43:45.954,,,,,,,,,,,,,,,,,,,,,,,,,,,,,,,,,,,,,,/muse/elements/jaw_clench
2021-09-11 00:43:46.265,0.53249514,0.0,0.0,0.55240095,0.74569845,0.0,0.0,0.5772123,1.3994676,0.0,0.0,0.72722214,0.83378756,0.0,0.0,0.8545965,0.094304174,0.0,0.0,0.17611164,749.0476,141.8315,131.75824,759.5238,551.6117,0.228515625,-0.02191162109375,0.990234375,8.03009033203125,-5.24871826171875,-0.919647216796875,1,1.0,4.0,4.0,1.0,65.00
2021-09-11 00:43:46.316,,,,,,,,,,,,,,,,,,,,,,,,,,,,,,,,,,,,,,/muse/elements/jaw_clench
2021-09-11 00:43:46.783,0.47294465,0.0,0.0,0.4641029,0.61937314,0.0,0.0,0.41095,1.2975657,0.0,0.0,0.6093636,0.75842077,0.0,0.0,0.89751613,0.17589042,0.0,0.0,0.19237109,784.5055,86.227104,592.71063,780.4762,842.52747,0.24072265625,-0.0224609375,0.98687744140625,6.3702392578125,-5.27862548828125,-2.04864501953125,1,1.0,4.0,4.0,1.0,65.00
2021-09-11 00:43:47.298,0.53569204,0.0,0.0,0.40765017,0.4366705,0.0,0.0,0.22832319,1.2035375,0.0,0.0,0.6481031,0.8567325,0.0,0.0,0.7676239,0.2821405,0.0,0.0,0.25387603,836.08057,993.22345,1067.7656,826.0073,1334.1025,0.25347900390625,-0.02490234375,0.9805908203125,6.273040771484375,-6.041259765625,-2.07855224609375,1,1.0,4.0,4.0,1.0,65.00
2021-09-11 00:43:47.587,,,,,,,,,,,,,,,,,,,,,,,,,,,,,,,,,,,,,,/muse/elements/jaw_clench
2021-09-11 00:43:47.811,0.51441526,0.0,0.0,0.25136745,0.035489492,0.0,0.0,0.13438877,0.8777241,0.0,0.0,0.6636359,0.9423487,0.0,0.0,0.7522043,0.35321087,0.0,0.0,0.29734308,810.293,56.007324,18.131868,796.99634,832.4542,0.2672119140625,-0.0238037109375,0.98162841796875,4.68048095703125,-5.1739501953125,-0.157012939453125,1,1.0,4.0,4.0,1.0,65.00
2021-09-11 00:43:47.916,,,,,,,,,,,,,,,,,,,,,,,,,,,,,,,,,,,,,,/muse/elements/blink
2021-09-11 00:43:48.319,0.6793621,0.0,0.0,0.27881104,0.011553735,0.0,0.0,0.1800017,0.8426313,0.0,0.0,0.6604732,0.9820151,0.0,0.0,0.67476475,0.3956178,0.0,0.0,0.40487936,817.5458,219.19414,650.7326,826.0073,1107.6556,0.22998046875,-0.04632568359375,0.96533203125,4.029998779296875,-0.471038818359375,1.27105712890625,1,1.0,4.0,4.0,1.0,65.00
2021-09-11 00:43:48.841,0.8557329,0.0,0.0,0.49510258,-0.06848788,0.0,0.0,0.11326724,0.83132243,0.0,0.0,0.5867396,0.9584154,0.0,0.0,0.7374331,0.42230177,0.0,0.0,0.40915805,767.5824,564.10254,309.0476,788.93774,445.2381,0.26422119140625,-0.01751708984375,0.9884033203125,8.673095703125,-3.297271728515625,-2.7813720703125,1,1.0,4.0,4.0,1.0,65.00
2021-09-11 00:43:49.361,0.8557329,0.0,0.0,0.49510258,-0.06848788,0.0,0.0,0.11326724,0.83132243,0.0,0.0,0.5867396,0.9584154,0.0,0.0,0.7374331,0.42230177,0.0,0.0,0.40915805,728.0952,369.8901,0.0,764.7619,382.78387,0.21588134765625,-0.05352783203125,0.98492431640625,3.985137939453125,-4.62066650390625,-6.3104248046875,1,1.0,4.0,4.0,1.0,65.00
2021-09-11 00:43:49.870,0.59208435,0.0,0.0,0.75424254,0.46491453,0.0,0.0,0.48214963,1.3660607,0.0,0.0,0.8978149,0.77807075,0.0,0.0,0.61637133,0.32739222,0.0,0.0,0.35945103,748.24176,174.06593,267.94873,778.46155,1077.033,0.26751708984375,-0.03900146484375,0.9830322265625,6.916046142578125,-7.917938232421875,-4.882354736328125,1,1.0,4.0,4.0,1.0,65.00
2021-09-11 00:43:50.381,0.6968316,0.0,0.0,0.72859037,0.42976642,0.0,0.0,0.47067282,1.3660607,0.0,0.0,0.899053,0.7275156,0.0,0.0,0.5479746,0.24892697,0.0,0.0,0.30702356,844.94507,436.77655,1393.7362,819.9634,969.85345,0.2645263671875,-0.012451171875,0.9840087890625,7.514190673828125,-1.532745361328125,-6.452484130859375,1,1.0,2.0,4.0,1.0,65.00
2021-09-11 00:43:50.488,,,,,,,,,,,,,,,,,,,,,,,,,,,,,,,,,,,,,,/muse/elements/jaw_clench
2021-09-11 00:43:50.896,0.7499059,0.0,0.0,0.609245,0.4144384,0.0,0.0,0.44936562,0.74564326,0.0,0.0,0.7034103,0.6727685,0.0,0.0,0.48829487,0.19881386,0.0,0.0,0.3323479,855.82416,1215.238,15.311356,842.1245,1022.6374,0.23114013671875,-0.07452392578125,0.97576904296875,-1.084136962890625,1.712188720703125,-6.407623291015625,1,1.0,2.0,4.0,1.0,65.00
2021-09-11 00:43:51.396,,,,,,,,,,,,,,,,,,,,,,,,,,,,,,,,,,,,,,/muse/elements/jaw_clench
2021-09-11 00:43:51.428,0.7572009,0.0,0.0,0.61479264,0.5870675,0.0,0.0,0.5680817,0.884382,0.0,0.0,0.5237535,0.72527707,0.0,0.0,0.48827583,0.19734362,0.0,0.0,0.30424568,837.28937,720.0366,740.18317,844.5421,1256.7399,0.25555419921875,-0.0386962890625,0.99090576171875,5.8319091796875,-4.254302978515625,-2.452392578125,1,1.0,4.0,4.0,1.0,65.00
2021-09-11 00:43:51.936,0.61954486,0.0,0.0,0.4969455,0.61486745,0.0,0.0,0.51670665,0.9241291,0.0,0.0,0.61226225,0.8484277,0.0,0.0,0.46642396,0.2700923,0.0,0.0,0.30020383,751.8681,873.5531,571.75824,805.05493,598.3516,0.2554931640625,-0.0357666015625,0.98016357421875,7.955322265625,-2.6617431640625,-0.538330078125,1,1.0,2.0,4.0,1.0,65.00
2021-09-11 00:43:52.464,0.6024848,0.0,0.0,0.36546305,0.6427169,0.0,0.0,0.51161945,1.0529796,0.0,0.0,0.88474506,0.86314684,0.0,0.0,0.48861706,0.30173656,0.0,0.0,0.23792143,759.92676,558.0586,0.0,771.2088,495.6044,0.25555419921875,-0.03387451171875,0.98016357421875,5.99639892578125,-3.12530517578125,-2.4224853515625,1,1.0,4.0,4.0,1.0,65.00
2021-09-11 00:43:52.977,0.56841093,0.0,0.0,0.26668578,0.4309186,0.0,0.0,0.39271435,0.99179286,0.0,0.0,0.8847856,0.822892,0.0,0.0,0.50661033,0.32224306,0.0,0.0,0.19512664,785.7143,930.7692,735.7509,788.93774,486.337,0.2569580078125,-0.03326416015625,0.97576904296875,4.8748779296875,-3.57391357421875,-1.682281494140625,1,1.0,2.0,4.0,1.0,65.00
2021-09-11 00:43:53.497,0.5395144,0.0,0.0,0.22064595,0.37391776,0.0,0.0,0.3825969,0.934308,0.0,0.0,0.87244236,0.73027956,0.0,0.0,0.61722875,0.27472612,0.0,0.0,0.122977525,803.8461,638.24176,1203.956,799.41394,813.5165,0.23974609375,-0.03289794921875,0.983154296875,5.196380615234375,-3.476715087890625,-2.16827392578125,1,1.0,4.0,4.0,1.0,65.00
2021-09-11 00:43:54.009,0.21871819,0.0,0.0,0.17951535,0.31324288,0.0,0.0,0.38933453,0.9043482,0.0,0.0,0.9513778,0.711191,0.0,0.0,0.65686554,0.26853272,0.0,0.0,0.0997646,841.7216,794.9817,1607.2894,832.4542,1146.337,0.240234375,-0.0311279296875,0.98492431640625,5.7720947265625,-3.940277099609375,-2.235565185546875,1,1.0,4.0,4.0,1.0,70.00
2021-09-11 00:43:54.530,0.15544465,0.0,0.0,0.09834362,0.21805157,0.0,0.0,0.3349189,0.8431894,0.0,0.0,0.8753165,0.66988975,0.0,0.0,0.59490985,0.23184575,0.0,0.0,0.15141322,849.7802,1097.9854,1390.5128,840.10986,843.3333,0.25152587890625,-0.03033447265625,0.9881591796875,6.302947998046875,-5.21881103515625,-1.263580322265625,1,1.0,2.0,4.0,1.0,70.00
2021-09-11 00:43:55.047,0.26855227,0.0,0.0,0.36862502,0.22369127,0.0,0.0,0.39008915,0.89757675,0.0,0.0,0.83522344,0.72760254,0.0,0.0,0.5206355,0.34399235,0.0,0.0,0.20010793,806.6667,774.43225,682.1612,812.3077,710.3663,0.274658203125,-0.0235595703125,0.97698974609375,6.661834716796875,-6.47491455078125,-1.33087158203125,1,1.0,1.0,4.0,1.0,70.00
2021-09-11 00:43:55.148,,,,,,,,,,,,,,,,,,,,,,,,,,,,,,,,,,,,,,/muse/elements/jaw_clench
2021-09-11 00:43:55.254,,,,,,,,,,,,,,,,,,,,,,,,,,,,,,,,,,,,,,/muse/elements/blink
2021-09-11 00:43:55.552,0.48488,0.0,0.0,0.65134066,0.13541232,0.0,0.0,0.749923,1.3500624,0.0,0.0,1.3385218,0.9168801,0.0,0.0,0.5296699,0.52262646,0.0,0.0,0.30355424,770.80585,777.6557,227.25275,774.83514,469.4139,0.2752685546875,-0.0257568359375,0.9742431640625,6.018829345703125,-3.940277099609375,-2.19818115234375,1,1.0,2.0,4.0,1.0,70.00
2021-09-11 00:43:56.080,0.89429677,0.0,0.0,1.0328304,0.5892697,0.0,0.0,1.1134732,1.414953,0.0,0.0,1.4268377,0.9503662,0.0,0.0,0.58268684,0.5607144,0.0,0.0,0.3798417,743.8095,746.63007,261.50183,751.8681,416.63004,0.278564453125,-0.02581787109375,0.9779052734375,5.824432373046875,-3.72344970703125,-1.652374267578125,1,1.0,2.0,4.0,1.0,70.00
2021-09-11 00:43:56.597,1.0209166,0.0,0.0,1.2222458,0.9199657,0.0,0.0,1.2773829,1.414953,0.0,0.0,1.4478818,0.9228043,0.0,0.0,0.6400391,0.5388246,0.0,0.0,0.41531855,807.8755,419.8535,790.54944,800.2198,780.87915,0.30706787109375,-0.032470703125,0.967529296875,11.08062744140625,-10.220794677734375,8.919830322265625,1,1.0,2.0,4.0,1.0,70.00
2021-09-11 00:43:57.130,1.1366854,0.0,0.0,1.3697839,1.1215535,0.0,0.0,1.313003,1.3411698,0.0,0.0,1.364227,0.6869179,0.0,0.0,0.62434745,0.28309888,0.0,0.0,0.2991377,757.1062,721.2454,132.5641,765.9707,308.64468,0.33782958984375,-0.03839111328125,0.9530029296875,5.600128173828125,-5.06927490234375,-2.444915771484375,1,1.0,2.0,4.0,1.0,70.00
2021-09-11 00:43:57.198,,,,,,,,,,,,,,,,,,,,,,,,,,,,,,,,,,,,,,/muse/elements/jaw_clench
2021-09-11 00:43:57.685,1.065106,0.0,0.0,1.4042015,1.255386,0.0,0.0,1.2396352,0.99204516,0.0,0.0,1.1615906,0.62121224,0.0,0.0,0.684833,0.2377857,0.0,0.0,0.19288927,784.10254,498.4249,630.989,759.12085,648.315,0.349853515625,-0.0396728515625,0.95404052734375,5.734710693359375,-4.254302978515625,-1.7645263671875,1,1.0,2.0,4.0,1.0,70.00
