TimeStamp,Delta_TP9,Delta_AF7,Delta_AF8,Delta_TP10,Theta_TP9,Theta_AF7,Theta_AF8,Theta_TP10,Alpha_TP9,Alpha_AF7,Alpha_AF8,Alpha_TP10,Beta_TP9,Beta_AF7,Beta_AF8,Beta_TP10,Gamma_TP9,Gamma_AF7,Gamma_AF8,Gamma_TP10,RAW_TP9,RAW_AF7,RAW_AF8,RAW_TP10,AUX_RIGHT,Accelerometer_X,Accelerometer_Y,Accelerometer_Z,Gyro_X,Gyro_Y,Gyro_Z,HeadBandOn,HSI_TP9,HSI_AF7,HSI_AF8,HSI_TP10,Battery,Elements
2021-10-15 09:31:58.544,1.4341292,0.6401784,0.0,1.331938,1.3596885,0.27931023,0.0,1.1483113,1.1369731,0.37560722,0.0,1.1817311,0.67298305,0.051418852,0.0,1.0383587,0.34777147,-0.28717595,0.0,0.64604884,591.50183,717.619,782.0879,608.022,844.1392,0.145263671875,0.04376220703125,1.009033203125,9.323577880859375,4.598236083984375,2.6318359375,1,1.0,1.0,1.0,1.0,75.00
2021-10-15 09:31:58.693,,,,,,,,,,,,,,,,,,,,,,,,,,,,,,,,,,,,,,/muse/elements/blink
2021-10-15 09:31:59.067,1.4341292,0.5587333,0.0,1.331938,1.3596885,0.17587435,0.0,1.1483113,1.1369731,0.15982373,0.0,1.1817311,0.67298305,-0.008185129,0.0,1.0383587,0.34777147,-0.22588319,0.0,0.64604884,792.1612,869.92676,892.8938,796.5934,672.8938,0.09637451171875,0.050048828125,1.008056640625,5.450592041015625,-2.265472412109375,-0.710296630859375,1,1.0,1.0,1.0,1.0,75.00
2021-10-15 09:31:59.594,1.4341292,0.5587333,0.0,1.331938,1.3596885,0.17587435,0.0,1.1483113,1.1369731,0.15982373,0.0,1.1817311,0.67298305,-0.008185129,0.0,1.0383587,0.34777147,-0.22588319,0.0,0.64604884,761.9414,857.03296,820.7692,753.0769,665.2381,0.0714111328125,0.04608154296875,1.0093994140625,6.08612060546875,-0.246734619140625,-1.443023681640625,1,1.0,1.0,1.0,1.0,75.00
2021-10-15 09:32:00.124,1.4341292,0.5587333,0.0,1.331938,1.3596885,0.17587435,0.0,1.1483113,1.1369731,0.15982373,0.0,1.1817311,0.67298305,-0.008185129,0.0,1.0383587,0.34777147,-0.22588319,0.0,0.64604884,757.50916,803.0403,802.6374,755.09155,713.1868,0.0443115234375,0.0433349609375,1.014892578125,5.585174560546875,-1.4654541015625,-2.310333251953125,1,1.0,1.0,1.0,1.0,75.00
2021-10-15 09:32:00.639,1.0627913,0.5587333,0.0,1.331938,0.7311754,0.17587435,0.0,1.1483113,0.74711,0.15982373,0.0,1.1817311,0.70697254,-0.008185129,0.0,1.0383587,0.32585934,-0.22588319,0.0,0.64604884,812.71063,770.40295,759.5238,797.3993,693.0403,0.03717041015625,0.045654296875,1.016357421875,6.542205810546875,-1.95892333984375,-4.119720458984375,1,1.0,1.0,1.0,1.0,75.00
2021-10-15 09:32:01.154,1.0627913,0.5587333,0.0,1.331938,0.7311754,0.17587435,0.0,1.1483113,0.74711,0.15982373,0.0,1.1817311,0.70697254,-0.008185129,0.0,1.0383587,0.32585934,-0.22588319,0.0,0.64604884,779.67035,791.3553,834.4689,782.49084,720.84247,0.02520751953125,0.039306640625,1.0128173828125,5.345916748046875,-5.226287841796875,-0.91217041015625,1,1.0,1.0,1.0,1.0,75.00
2021-10-15 09:32:01.651,,,,,,,,,,,,,,,,,,,,,,,,,,,,,,,,,,,,,,/muse/elements/blink
2021-10-15 09:32:01.675,1.0627913,1.1834347,0.0,1.331938,0.7311754,0.6251601,0.0,1.1483113,0.74711,0.76704663,0.0,1.1817311,0.70697254,0.415061,0.0,1.0383587,0.32585934,-0.18641947,0.0,0.64604884,792.96704,814.7253,860.65936,787.72894,670.87915,0.0318603515625,0.026611328125,1.01983642578125,5.839385986328125,-2.64678955078125,1.51031494140625,1,1.0,1.0,1.0,1.0,75.00
2021-10-15 09:32:02.197,1.0627913,0.9300041,0.0,1.331938,0.7311754,1.0327234,0.0,1.1483113,0.74711,0.8119466,0.0,1.1817311,0.70697254,0.3501303,0.0,1.0383587,0.32585934,-0.32759538,0.0,0.64604884,820.7692,821.5751,791.75824,816.7399,722.4542,-0.0078125,0.045166015625,1.008056640625,7.29736328125,1.1962890625,-1.398162841796875,1,1.0,1.0,1.0,1.0,75.00
2021-10-15 09:32:02.565,,,,,,,,,,,,,,,,,,,,,,,,,,,,,,,,,,,,,,/muse/elements/blink
2021-10-15 09:32:02.707,1.0627913,0.85725576,0.0,1.331938,0.7311754,1.1198876,0.0,1.1483113,0.74711,0.70465285,0.0,1.1817311,0.70697254,0.312102,0.0,1.0383587,0.32585934,-0.23965415,0.0,0.64604884,765.9707,823.9927,849.3773,763.95605,877.5824,-0.12591552734375,0.04669189453125,1.0076904296875,9.024505615234375,-1.607513427734375,0.037384033203125,1,1.0,1.0,1.0,1.0,75.00
2021-10-15 09:32:03.213,1.0627913,1.3246068,0.0,1.331938,0.7311754,1.0883632,0.0,1.1483113,0.74711,1.0832746,0.0,1.1817311,0.70697254,0.39904284,0.0,1.0383587,0.32585934,0.001733351,0.0,0.64604884,755.89746,805.8608,862.27106,749.85345,636.2271,-0.052001953125,0.07244873046875,1.01177978515625,4.687957763671875,-2.88604736328125,-4.493560791015625,1,1.0,1.0,1.0,1.0,75.00
2021-10-15 09:32:03.575,,,,,,,,,,,,,,,,,,,,,,,,,,,,,,,,,,,,,,/muse/elements/blink
2021-10-15 09:32:03.737,1.0627913,1.5061816,0.0,1.331938,0.7311754,1.0185182,0.0,1.1483113,0.74711,1.0832746,0.0,1.1817311,0.70697254,0.4671692,0.0,1.0383587,0.32585934,0.12807815,0.0,0.64604884,793.7729,827.619,889.2674,792.96704,653.95605,-0.0970458984375,0.04010009765625,1.00244140625,5.682373046875,-10.175933837890625,-6.302947998046875,1,2.0,1.0,1.0,2.0,75.00
2021-10-15 09:32:04.263,1.0627913,1.5061816,0.0,1.331938,0.7311754,1.0185182,0.0,1.1483113,0.74711,1.0832746,0.0,1.1817311,0.70697254,0.4671692,0.0,1.0383587,0.32585934,0.12807815,0.0,0.64604884,789.34064,810.293,814.7253,743.8095,711.5751,-0.0316162109375,0.0377197265625,1.022216796875,7.22259521484375,-3.27484130859375,-7.476806640625,1,2.0,1.0,1.0,2.0,70.00
2021-10-15 09:32:04.781,1.0627913,1.5061816,0.0,1.331938,0.7311754,1.0185182,0.0,1.1483113,0.74711,1.0832746,0.0,1.1817311,0.70697254,0.4671692,0.0,1.0383587,0.32585934,0.12807815,0.0,0.64604884,776.8498,766.77655,765.56775,779.67035,675.31134,0.02008056640625,0.08087158203125,0.9951171875,5.809478759765625,-8.53851318359375,-1.1962890625,1,2.0,1.0,1.0,2.0,70.00
2021-10-15 09:32:05.295,1.0627913,1.5061816,0.0,1.2713369,0.7311754,1.0185182,0.0,0.99745405,0.74711,1.0832746,0.0,1.0972205,0.70697254,0.4671692,0.0,0.85599124,0.32585934,0.12807815,0.0,0.62115496,732.52747,722.8571,731.31866,754.2857,754.2857,-0.015869140625,0.0513916015625,1.08258056640625,3.170166015625,8.0450439453125,2.893524169921875,1,1.0,1.0,1.0,1.0,70.00
2021-10-15 09:32:05.824,1.4356536,1.5061816,0.0,1.2123451,1.3464876,1.0185182,0.0,1.0074972,1.2457805,1.0832746,0.0,1.1204523,0.92150736,0.4671692,0.0,0.7804905,0.5629772,0.12807815,0.0,0.5429284,796.99634,732.9304,746.63007,817.1429,993.6264,-0.08251953125,0.0328369140625,1.0216064453125,3.267364501953125,5.390777587890625,-2.400054931640625,1,1.0,1.0,1.0,1.0,70.00
2021-10-15 09:32:06.339,1.4356536,1.075925,0.0,1.2071418,1.3464876,1.018462,0.0,0.98674047,1.2457805,0.99135524,0.0,1.0762635,0.92150736,0.438718,0.0,0.7701119,0.5629772,-0.27007553,0.0,0.54919875,763.1502,802.6374,842.9304,774.43225,837.28937,-0.0445556640625,-0.005615234375,1.06365966796875,-3.768310546875,-12.63580322265625,-31.59698486328125,1,1.0,1.0,1.0,1.0,70.00
2021-10-15 09:32:06.852,1.3708884,1.075925,0.0,1.1585549,1.2917097,1.018462,0.0,1.0079381,1.1226201,0.99135524,0.0,0.89628065,0.87955725,0.438718,0.0,0.6966622,0.5753377,-0.27007553,0.0,0.5060913,643.8828,791.3553,870.32965,688.60803,915.05493,0.078857421875,-0.02349853515625,1.01043701171875,4.583282470703125,4.448699951171875,18.5723876953125,1,1.0,1.0,1.0,1.0,70.00
2021-10-15 09:32:07.066,,,,,,,,,,,,,,,,,,,,,,,,,,,,,,,,,,,,,,/muse/elements/blink
2021-10-15 09:32:07.357,1.3708884,1.075925,0.0,1.1585549,1.2917097,1.018462,0.0,1.0079381,1.1226201,0.99135524,0.0,0.89628065,0.87955725,0.438718,0.0,0.6966622,0.5753377,-0.27007553,0.0,0.5060913,789.34064,776.04395,751.06226,768.7912,706.337,-0.05499267578125,-0.03192138671875,1.01629638671875,4.78515625,6.930999755859375,10.789031982421875,1,1.0,1.0,1.0,1.0,70.00
2021-10-15 09:32:07.765,,,,,,,,,,,,,,,,,,,,,,,,,,,,,,,,,,,,,,/muse/elements/blink
2021-10-15 09:32:07.866,1.3708884,1.075925,0.0,1.1585549,1.2917097,1.018462,0.0,1.0079381,1.1226201,0.99135524,0.0,0.89628065,0.87955725,0.438718,0.0,0.6966622,0.5753377,-0.27007553,0.0,0.5060913,786.1172,748.24176,726.8865,805.4579,1056.4835,-0.1759033203125,-0.017333984375,0.9840087890625,10.803985595703125,2.76641845703125,-0.859832763671875,1,1.0,1.0,1.0,1.0,70.00
2021-10-15 09:32:08.370,1.3708884,1.075925,0.0,1.1585549,1.2917097,1.018462,0.0,1.0079381,1.1226201,0.99135524,0.0,0.89628065,0.87955725,0.438718,0.0,0.6966622,0.5753377,-0.27007553,0.0,0.5060913,792.1612,751.8681,722.4542,798.20514,928.7546,-0.1541748046875,-0.016357421875,0.99957275390625,4.3365478515625,-11.432037353515625,-2.01873779296875,1,2.0,1.0,1.0,2.0,70.00
2021-10-15 09:32:08.889,1.3708884,0.18083066,0.0,1.1585549,1.2917097,0.31397498,0.0,1.0079381,1.1226201,0.19279763,0.0,0.89628065,0.87955725,0.3371263,0.0,0.6966622,0.5753377,0.15014334,0.0,0.5060913,801.8315,747.8388,699.4872,784.90845,778.0586,-0.05560302734375,-0.00604248046875,1.00299072265625,2.265472412109375,-9.13665771484375,-10.69183349609375,1,2.0,1.0,1.0,2.0,70.00
2021-10-15 09:32:09.401,1.1356999,0.24643268,0.0,1.2823852,0.8698953,0.21494672,0.0,1.1673142,0.8946302,0.3746703,0.0,1.1882806,0.63102746,0.26509744,0.0,0.7757538,0.3590365,0.099515855,0.0,0.6240735,733.3333,747.03296,686.1905,732.1245,994.43225,-0.07861328125,0.01397705078125,1.00616455078125,2.190704345703125,-1.966400146484375,-0.31402587890625,1,1.0,1.0,1.0,1.0,70.00
2021-10-15 09:32:09.928,1.1712469,0.2055056,0.0,1.2508135,0.893508,0.14674167,0.0,1.1671034,1.0072086,0.48875323,0.0,1.2073694,0.6844032,0.32508957,0.0,0.7862417,0.3394082,-0.007740112,0.0,0.63008463,786.52014,742.6007,728.49817,807.8755,693.0403,-0.0987548828125,0.0030517578125,1.01885986328125,7.693634033203125,-2.011260986328125,0.381317138671875,1,1.0,1.0,1.0,1.0,70.00
2021-10-15 09:32:10.459,1.2625067,0.4746966,0.0,1.1913549,0.8852632,0.16737397,0.0,1.1789196,0.9975754,0.48789594,0.0,1.2033969,0.73642915,0.27724236,0.0,0.774146,0.24182539,-0.16267137,0.0,0.6643258,758.315,736.9597,774.43225,789.7436,587.8755,-0.08831787109375,0.00286865234375,1.02044677734375,6.512298583984375,1.906585693359375,-5.869293212890625,1,1.0,1.0,1.0,1.0,70.00
2021-10-15 09:32:10.973,1.3846089,0.61615103,0.0,1.1545296,1.0059413,0.24984412,0.0,1.0851731,0.96049565,0.40063983,0.0,1.0610288,0.81494594,0.29270482,0.0,0.7574877,0.36231452,-0.32885322,0.0,0.55351764,799.41394,774.83514,813.1135,847.3626,938.8278,-0.098876953125,-0.0087890625,1.02239990234375,5.330963134765625,-4.179534912109375,8.217010498046875,1,1.0,1.0,1.0,1.0,70.00
2021-10-15 09:32:11.494,1.3652985,0.77220094,0.0,1.1545296,1.0088781,0.37432316,0.0,1.0851731,0.90813816,0.22410849,0.0,1.0610288,0.7911056,0.15504444,0.0,0.7574877,0.39069134,-0.27113906,0.0,0.55351764,796.5934,877.5824,909.41394,791.3553,625.7509,-0.07244873046875,0.0247802734375,1.01434326171875,5.450592041015625,-12.261962890625,-0.13458251953125,1,1.0,1.0,1.0,1.0,70.00
2021-10-15 09:32:12.005,1.3834349,0.8056517,0.0,1.1545296,1.2354813,0.45932436,0.0,1.0851731,0.8977886,0.22271627,0.0,1.0610288,0.8726393,0.042278156,0.0,0.7574877,0.59107983,-0.22735065,0.0,0.55351764,783.2967,836.8865,848.1685,776.04395,648.71796,-0.03314208984375,0.023193359375,1.0123291015625,4.9346923828125,-6.407623291015625,-1.9140625,1,1.0,1.0,1.0,1.0,70.00
2021-10-15 09:32:12.519,1.4593729,0.8056517,0.0,1.1545296,1.3693672,0.45932436,0.0,1.0851731,0.8412879,0.22271627,0.0,1.0610288,0.96293217,0.042278156,0.0,0.7574877,0.68585175,-0.22735065,0.0,0.55351764,777.25275,796.99634,850.989,789.7436,689.81683,-0.02972412109375,0.0233154296875,1.0203857421875,6.08612060546875,-3.596343994140625,0.620574951171875,1,1.0,1.0,1.0,1.0,70.00
2021-10-15 09:32:12.627,,,,,,,,,,,,,,,,,,,,,,,,,,,,,,,,,,,,,,/muse/elements/blink
2021-10-15 09:32:13.042,1.4593729,0.8056517,0.0,1.1545296,1.3693672,0.45932436,0.0,1.0851731,0.8412879,0.22271627,0.0,1.0610288,0.96293217,0.042278156,0.0,0.7574877,0.68585175,-0.22735065,0.0,0.55351764,811.0989,778.0586,749.0476,824.3956,1300.6593,-0.016845703125,0.025634765625,1.0224609375,4.987030029296875,-7.46185302734375,-4.897308349609375,1,1.0,1.0,1.0,1.0,70.00
2021-10-15 09:32:13.576,1.4593729,0.8056517,0.0,1.1545296,1.3693672,0.45932436,0.0,1.0851731,0.8412879,0.22271627,0.0,1.0610288,0.96293217,0.042278156,0.0,0.7574877,0.68585175,-0.22735065,0.0,0.55351764,816.337,818.3516,708.7546,822.7839,713.1868,0.01019287109375,0.01190185546875,1.01171875,5.78704833984375,-3.409423828125,-2.2430419921875,1,1.0,1.0,1.0,1.0,70.00
2021-10-15 09:32:14.102,1.4593729,0.8056517,0.0,1.1545296,1.3693672,0.45932436,0.0,1.0851731,0.8412879,0.22271627,0.0,1.0610288,0.96293217,0.042278156,0.0,0.7574877,0.68585175,-0.22735065,0.0,0.55351764,763.95605,793.36993,762.3443,770.40295,745.82416,0.006591796875,0.01959228515625,1.01422119140625,6.063690185546875,-5.9515380859375,3.12530517578125,1,2.0,1.0,1.0,2.0,70.00
2021-10-15 09:32:14.626,1.4593729,0.8056517,0.0,1.1545296,1.3693672,0.45932436,0.0,1.0851731,0.8412879,0.22271627,0.0,1.0610288,0.96293217,0.042278156,0.0,0.7574877,0.68585175,-0.22735065,0.0,0.55351764,800.6227,774.0293,728.49817,795.78754,676.52014,0.00811767578125,0.04083251953125,1.01397705078125,6.572113037109375,-4.5758056640625,-1.577606201171875,1,2.0,1.0,1.0,2.0,75.00
2021-10-15 09:32:14.946,,,,,,,,,,,,,,,,,,,,,,,,,,,,,,,,,,,,,,/muse/elements/blink
2021-10-15 09:32:15.139,1.4593729,0.8056517,0.0,1.1545296,1.3693672,0.45932436,0.0,1.0851731,0.8412879,0.22271627,0.0,1.0610288,0.96293217,0.042278156,0.0,0.7574877,0.68585175,-0.22735065,0.0,0.55351764,775.64105,778.46155,846.9597,759.12085,624.1392,-0.004638671875,0.0328369140625,0.98388671875,1.009368896484375,-7.245025634765625,-2.7215576171875,1,2.0,1.0,1.0,2.0,75.00
2021-10-15 09:32:15.669,1.4593729,0.8056517,0.0,1.1545296,1.3693672,0.45932436,0.0,1.0851731,0.8412879,0.22271627,0.0,1.0610288,0.96293217,0.042278156,0.0,0.7574877,0.68585175,-0.22735065,0.0,0.55351764,805.05493,760.7326,753.0769,786.52014,652.74725,-0.025390625,0.0030517578125,1.01470947265625,5.4132080078125,-8.53851318359375,-1.637420654296875,1,2.0,1.0,1.0,2.0,75.00
2021-10-15 09:32:16.179,1.4593729,0.8056517,0.0,1.1545296,1.3693672,0.45932436,0.0,1.0851731,0.8412879,0.22271627,0.0,1.0610288,0.96293217,0.042278156,0.0,0.7574877,0.68585175,-0.22735065,0.0,0.55351764,777.6557,759.12085,757.50916,781.685,786.9231,0.00970458984375,0.004150390625,1.01641845703125,5.12908935546875,-1.435546875,-0.88226318359375,1,2.0,1.0,1.0,2.0,75.00
2021-10-15 09:32:16.710,0.8468213,0.8056517,0.0,0.9735557,1.1664431,0.45932436,0.0,1.2599708,0.92191374,0.22271627,0.0,0.75586516,0.7582683,0.042278156,0.0,0.6711479,0.5792344,-0.22735065,0.0,0.3919501,745.0183,730.9158,654.7619,737.76556,810.293,0.08172607421875,0.01336669921875,1.022216796875,21.951904296875,18.026580810546875,18.400421142578125,1,1.0,1.0,1.0,1.0,75.00
2021-10-15 09:32:16.899,,,,,,,,,,,,,,,,,,,,,,,,,,,,,,,,,,,,,,/muse/elements/blink
2021-10-15 09:32:17.230,1.1379765,0.9696554,0.0,1.0546294,1.3519671,0.5448561,0.0,1.3393977,1.5018348,0.70691246,0.0,1.7023836,0.78084135,0.46165916,0.0,0.981954,0.50623614,0.18212669,0.0,0.5528353,846.55676,761.9414,806.6667,818.7546,855.42126,-0.11444091796875,-0.044677734375,0.95330810546875,-4.149627685546875,-33.27178955078125,-7.454376220703125,1,1.0,1.0,1.0,1.0,75.00
2021-10-15 09:32:17.363,,,,,,,,,,,,,,,,,,,,,,,,,,,,,,,,,,,,,,/muse/elements/blink
2021-10-15 09:32:17.751,1.2782516,0.82032144,0.0,1.1522218,1.4546039,0.53480434,0.0,1.3894787,1.5018348,0.6985003,0.0,1.7023836,0.7883192,0.36305392,0.0,1.1196698,0.45437515,0.08080253,0.0,0.602765,770.80585,774.0293,724.4689,808.68134,693.44324,-0.01739501953125,-0.0321044921875,1.02471923828125,12.404022216796875,-16.61346435546875,-6.280517578125,1,1.0,1.0,1.0,1.0,75.00
2021-10-15 09:32:18.256,1.489877,0.81717736,0.0,1.2665867,1.6157081,0.5419566,0.0,1.4654562,1.5018348,0.70606095,0.0,1.7023836,0.83976597,0.30575043,0.0,1.342203,0.3524954,0.054658134,0.0,0.77748966,838.0952,804.2491,858.24176,850.989,695.8608,-0.0316162109375,-0.0184326171875,1.0784912109375,8.38897705078125,9.07684326171875,-2.52716064453125,1,1.0,1.0,2.0,1.0,75.00
2021-10-15 09:32:18.295,,,,,,,,,,,,,,,,,,,,,,,,,,,,,,,,,,,,,,/muse/elements/blink
2021-10-15 09:32:18.787,1.489877,0.83135474,0.0,1.2665867,1.6157081,0.47977182,0.0,1.4654562,1.5018348,0.6127557,0.0,1.7023836,0.83976597,0.14795962,0.0,1.342203,0.3524954,-0.010390099,0.0,0.77748966,804.2491,806.26373,869.12085,810.293,822.381,-0.11065673828125,-0.07073974609375,1.0018310546875,4.306640625,2.79632568359375,-2.13836669921875,1,1.0,1.0,2.0,1.0,75.00
2021-10-15 09:32:19.308,1.489877,0.7960981,0.0,1.2665867,1.6157081,0.352291,0.0,1.4654562,1.5018348,0.51647955,0.0,1.7023836,0.83976597,0.21085599,0.0,1.342203,0.3524954,-0.17460714,0.0,0.77748966,756.7033,797.3993,748.6447,763.1502,800.6227,-0.1163330078125,-0.0699462890625,1.015625,15.065765380859375,-13.420867919921875,26.505279541015625,1,1.0,1.0,1.0,1.0,75.00
2021-10-15 09:32:19.454,,,,,,,,,,,,,,,,,,,,,,,,,,,,,,,,,,,,,,/muse/elements/blink
2021-10-15 09:32:19.820,1.489877,1.0986181,0.0,1.2665867,1.6157081,0.5580848,0.0,1.4654562,1.5018348,0.39553025,0.0,1.7023836,0.83976597,0.46944797,0.0,1.342203,0.3524954,0.16926017,0.0,0.77748966,806.26373,776.8498,698.68134,811.0989,622.9304,0.03741455078125,-0.01080322265625,1.03131103515625,3.596343994140625,-8.695526123046875,-7.5665283203125,1,1.0,1.0,2.0,1.0,75.00
2021-10-15 09:32:20.323,1.489877,1.0986181,0.0,1.2665867,1.6157081,0.5580848,0.0,1.4654562,1.5018348,0.39553025,0.0,1.7023836,0.83976597,0.46944797,0.0,1.342203,0.3524954,0.16926017,0.0,0.77748966,778.46155,803.0403,544.7619,817.9487,1075.4213,-0.09637451171875,0.0159912109375,1.01422119140625,4.643096923828125,-2.086029052734375,-3.461761474609375,1,2.0,1.0,1.0,2.0,75.00
2021-10-15 09:32:20.762,,,,,,,,,,,,,,,,,,,,,,,,,,,,,,,,,,,,,,/muse/elements/blink
2021-10-15 09:32:20.853,1.489877,1.0986181,0.0,1.2665867,1.6157081,0.5580848,0.0,1.4654562,1.5018348,0.39553025,0.0,1.7023836,0.83976597,0.46944797,0.0,1.342203,0.3524954,0.16926017,0.0,0.77748966,770.40295,791.75824,796.1905,794.57874,884.83514,-0.045654296875,0.01336669921875,1.0186767578125,19.043426513671875,5.689849853515625,-1.60003662109375,1,2.0,1.0,2.0,2.0,75.00
2021-10-15 09:32:21.364,1.489877,1.0986181,0.0,1.2665867,1.6157081,0.5580848,0.0,1.4654562,1.5018348,0.39553025,0.0,1.7023836,0.83976597,0.46944797,0.0,1.342203,0.3524954,0.16926017,0.0,0.77748966,789.7436,787.326,754.68866,796.5934,810.696,-0.00384521484375,0.01055908203125,0.98358154296875,8.194580078125,1.136474609375,-7.977752685546875,1,2.0,1.0,1.0,2.0,75.00
2021-10-15 09:32:21.873,1.489877,1.013584,0.0,1.2665867,1.6157081,0.97778285,0.0,1.4654562,1.5018348,0.72146,0.0,1.7023836,0.83976597,0.3189346,0.0,1.342203,0.3524954,-0.12510991,0.0,0.77748966,757.9121,741.39197,667.6557,765.16486,809.0842,-0.27105712890625,0.10125732421875,0.9991455078125,4.66552734375,-5.57769775390625,1.9439697265625,1,2.0,1.0,1.0,2.0,75.00
2021-10-15 09:32:22.397,1.489877,1.013584,0.0,1.2665867,1.6157081,0.97778285,0.0,1.4654562,1.5018348,0.72146,0.0,1.7023836,0.83976597,0.3189346,0.0,1.342203,0.3524954,-0.12510991,0.0,0.77748966,786.1172,765.9707,733.73627,762.74725,654.7619,-0.23150634765625,0.01824951171875,0.97265625,-0.500946044921875,-15.439605712890625,-3.043060302734375,1,2.0,1.0,1.0,2.0,75.00
2021-10-15 09:32:22.597,,,,,,,,,,,,,,,,,,,,,,,,,,,,,,,,,,,,,,/muse/elements/blink
2021-10-15 09:32:22.925,1.489877,0.92570746,0.0,1.2665867,1.6157081,0.8247352,0.0,1.4654562,1.5018348,0.5552149,0.0,1.7023836,0.83976597,0.2700013,0.0,1.342203,0.3524954,-0.10525946,0.0,0.77748966,767.98535,757.50916,761.9414,777.6557,786.1172,0.01611328125,-0.04791259765625,1.0323486328125,4.822540283203125,-16.688232421875,-6.20574951171875,1,2.0,1.0,1.0,2.0,75.00
2021-10-15 09:32:23.430,1.489877,0.88592166,0.0,1.2665867,1.6157081,0.595959,0.0,1.4654562,1.5018348,0.38208252,0.0,1.7023836,0.83976597,-0.11040957,0.0,1.342203,0.3524954,-0.19196875,0.0,0.77748966,796.5934,753.8828,724.4689,799.011,718.4249,-0.02862548828125,-0.016357421875,1.02789306640625,5.689849853515625,-1.667327880859375,-6.17584228515625,1,2.0,1.0,1.0,2.0,75.00
2021-10-15 09:32:23.957,1.489877,0.94263774,0.0,1.2665867,1.6157081,0.563459,0.0,1.4654562,1.5018348,0.3836761,0.0,1.7023836,0.83976597,-0.106959194,0.0,1.342203,0.3524954,-0.21105397,0.0,0.77748966,768.3883,779.67035,792.5641,776.8498,733.3333,0.01519775390625,-0.02838134765625,1.005615234375,8.411407470703125,-16.920013427734375,-0.31402587890625,1,2.0,1.0,1.0,2.0,75.00
2021-10-15 09:32:24.251,,,,,,,,,,,,,,,,,,,,,,,,,,,,,,,,,,,,,,/muse/elements/blink
2021-10-15 09:32:24.477,1.489877,1.0523374,0.0,1.2665867,1.6157081,0.6125649,0.0,1.4654562,1.5018348,0.33968627,0.0,1.7023836,0.83976597,-0.14433391,0.0,1.342203,0.3524954,-0.25714225,0.0,0.77748966,730.5128,783.2967,806.26373,740.989,770.80585,-0.06512451171875,0.00592041015625,1.0260009765625,15.992889404296875,-15.4620361328125,12.78533935546875,1,2.0,1.0,1.0,2.0,75.00
2021-10-15 09:32:24.782,,,,,,,,,,,,,,,,,,,,,,,,,,,,,,,,,,,,,,/muse/elements/blink
2021-10-15 09:32:24.984,1.489877,1.1053985,0.0,1.2665867,1.6157081,0.60225064,0.0,1.4654562,1.5018348,0.32339174,0.0,1.7023836,0.83976597,-0.16523963,0.0,1.342203,0.3524954,-0.29860303,0.0,0.77748966,814.7253,762.74725,665.2381,812.71063,736.55676,-0.05389404296875,0.0369873046875,1.0186767578125,12.0526123046875,-3.2598876953125,-7.050628662109375,1,2.0,1.0,1.0,2.0,80.00
2021-10-15 09:32:25.491,1.489877,1.1053985,0.0,1.2665867,1.6157081,0.60225064,0.0,1.4654562,1.5018348,0.32339174,0.0,1.7023836,0.83976597,-0.16523963,0.0,1.342203,0.3524954,-0.29860303,0.0,0.77748966,827.619,742.1978,776.4469,836.08057,932.7839,0.09326171875,0.02630615234375,1.02008056640625,5.630035400390625,-5.016937255859375,-18.0938720703125,1,2.0,1.0,1.0,2.0,80.00
2021-10-15 09:32:26.016,1.489877,1.1053985,0.0,1.2665867,1.6157081,0.60225064,0.0,1.4654562,1.5018348,0.32339174,0.0,1.7023836,0.83976597,-0.16523963,0.0,1.342203,0.3524954,-0.29860303,0.0,0.77748966,778.0586,793.7729,813.5165,810.293,764.7619,-0.01458740234375,-0.02923583984375,1.04681396484375,-0.97198486328125,-11.52923583984375,-8.5833740234375,1,2.0,1.0,1.0,2.0,80.00
2021-10-15 09:32:26.514,,,,,,,,,,,,,,,,,,,,,,,,,,,,,,,,,,,,,,/muse/elements/blink
2021-10-15 09:32:26.544,1.489877,1.1053985,0.0,1.2665867,1.6157081,0.60225064,0.0,1.4654562,1.5018348,0.32339174,0.0,1.7023836,0.83976597,-0.16523963,0.0,1.342203,0.3524954,-0.29860303,0.0,0.77748966,786.9231,801.02563,808.2784,796.1905,553.6264,-0.029052734375,-0.015625,1.0054931640625,10.9759521484375,3.9776611328125,-1.652374267578125,1,2.0,1.0,1.0,2.0,80.00
2021-10-15 09:32:27.064,1.489877,1.1053985,0.0,1.2665867,1.6157081,0.60225064,0.0,1.4654562,1.5018348,0.32339174,0.0,1.7023836,0.83976597,-0.16523963,0.0,1.342203,0.3524954,-0.29860303,0.0,0.77748966,789.7436,799.011,799.81683,800.2198,792.1612,-0.09136962890625,-0.08990478515625,1.02008056640625,-2.1533203125,5.345916748046875,-1.54022216796875,1,2.0,1.0,1.0,2.0,80.00
2021-10-15 09:32:27.590,0.97975045,1.1053985,0.0,1.2665867,1.290789,0.60225064,0.0,1.4654562,1.2130687,0.32339174,0.0,1.7023836,0.59482145,-0.16523963,0.0,1.342203,0.4214959,-0.29860303,0.0,0.77748966,751.4652,764.35895,750.65936,780.87915,737.76556,-0.09613037109375,-0.05731201171875,1.020751953125,4.0673828125,-4.41131591796875,-7.738494873046875,1,1.0,1.0,1.0,1.0,80.00
2021-10-15 09:32:28.096,1.1066236,0.6364484,0.0,1.1000283,1.2458434,0.31635925,0.0,1.1081083,1.2130687,0.8142739,0.0,1.4575524,0.6552412,0.4646324,0.0,0.75822014,0.4091048,-0.0021989138,0.0,0.44249725,817.1429,775.64105,766.77655,799.011,771.2088,-0.1785888671875,-0.00567626953125,0.9991455078125,12.060089111328125,1.547698974609375,0.5682373046875,1,1.0,1.0,1.0,1.0,80.00
2021-10-15 09:32:28.620,1.1204761,0.59580916,0.0,1.0877115,1.2228737,0.31987867,0.0,0.9902625,1.2130687,0.8257343,0.0,1.4575524,0.64981055,0.43593425,0.0,0.7218518,0.39529774,-0.02471829,0.0,0.40915123,789.34064,763.95605,745.0183,792.96704,835.6777,-0.1103515625,-0.0072021484375,1.0078125,1.218719482421875,-9.8095703125,-10.684356689453125,1,1.0,1.0,1.0,1.0,80.00
2021-10-15 09:32:29.130,1.265863,0.48887068,0.0,1.0154809,1.0885847,0.2997875,0.0,0.840689,0.9262637,0.8127325,0.0,1.3240666,0.69957685,0.36483923,0.0,0.6590151,0.34227315,-0.124867626,0.0,0.39875886,781.685,784.10254,754.68866,786.9231,628.1685,-0.0982666015625,-0.02239990234375,1.0174560546875,2.100982666015625,-7.8955078125,-4.523468017578125,1,1.0,1.0,1.0,1.0,80.00
2021-10-15 09:32:29.217,,,,,,,,,,,,,,,,,,,,,,,,,,,,,,,,,,,,,,/muse/elements/blink
2021-10-15 09:32:29.639,1.2327259,0.2881117,0.0,1.0326895,0.93358415,0.2780898,0.0,0.6849913,0.85582435,0.70337594,0.0,0.99070525,0.68478864,0.20734009,0.0,0.6540762,0.3070607,-0.32915506,0.0,0.40712324,774.0293,777.6557,724.4689,756.7033,842.1245,-0.07440185546875,-0.00244140625,1.0177001953125,2.459869384765625,-3.596343994140625,-4.059906005859375,1,1.0,1.0,1.0,1.0,80.00
2021-10-15 09:32:30.149,1.2327259,0.2881117,0.0,0.9837358,0.93358415,0.2780898,0.0,0.787244,0.85582435,0.70337594,0.0,0.9838613,0.68478864,0.20734009,0.0,0.70120245,0.3070607,-0.32915506,0.0,0.44167912,782.0879,769.19415,756.30035,779.2674,725.6777,-0.10455322265625,-0.006103515625,1.01666259765625,4.643096923828125,-5.33843994140625,-2.310333251953125,1,1.0,1.0,1.0,1.0,80.00
2021-10-15 09:32:30.651,0.9240728,0.6686516,0.0,0.9837358,0.6230987,0.37336338,0.0,0.787244,0.83387184,0.781324,0.0,0.9838613,0.511135,0.19926253,0.0,0.70120245,0.2062718,0.24154961,0.0,0.44167912,803.0403,769.59705,764.35895,783.69965,685.78754,-0.1224365234375,-0.0213623046875,1.00372314453125,11.342315673828125,-23.933258056640625,-1.39068603515625,1,1.0,1.0,1.0,1.0,80.00
2021-10-15 09:32:30.923,,,,,,,,,,,,,,,,,,,,,,,,,,,,,,,,,,,,,,/muse/elements/blink
2021-10-15 09:32:31.153,0.9120752,0.7889744,0.0,1.0427238,0.60342026,0.76025265,0.0,0.6060889,0.9905503,1.1166574,0.0,0.8019855,0.53622854,0.23980841,0.0,0.7933459,0.21138489,0.24035846,0.0,0.23978661,801.02563,785.31134,790.9524,816.7399,758.71796,9.765625E-4,-0.01666259765625,1.0133056640625,3.30474853515625,-0.5682373046875,4.65057373046875,1,1.0,1.0,1.0,1.0,80.00
2021-10-15 09:32:31.620,,,,,,,,,,,,,,,,,,,,,,,,,,,,,,,,,,,,,,/muse/elements/blink
2021-10-15 09:32:31.689,0.9120752,1.1651065,0.0,1.0427238,0.60342026,1.1893193,0.0,0.6060889,0.9905503,1.2567042,0.0,0.8019855,0.53622854,0.28232598,0.0,0.7933459,0.21138489,0.21388304,0.0,0.23978661,811.0989,795.38464,740.18317,818.3516,776.8498,0.0150146484375,-0.02069091796875,1.04925537109375,6.35528564453125,-2.1832275390625,6.123504638671875,1,1.0,1.0,1.0,1.0,80.00
2021-10-15 09:32:32.192,0.83914,1.3718783,0.0,1.0427238,0.5648006,1.3977649,0.0,0.6060889,0.97868365,1.2567042,0.0,0.8019855,0.53924227,0.36268842,0.0,0.7933459,0.20192575,0.17231727,0.0,0.23978661,767.1795,747.03296,762.74725,770.0,668.0586,0.05084228515625,-0.015380859375,1.02337646484375,3.90289306640625,-0.276641845703125,-4.000091552734375,1,1.0,1.0,1.0,1.0,80.00
2021-10-15 09:32:32.695,0.83914,1.5915365,0.0,1.0427238,0.5648006,1.6245981,0.0,0.6060889,0.97868365,1.2515067,0.0,0.8019855,0.53924227,0.36588472,0.0,0.7933459,0.20192575,0.014853612,0.0,0.23978661,804.65204,774.0293,756.7033,810.696,733.3333,0.05340576171875,-0.06341552734375,1.0277099609375,0.351409912109375,-5.14404296875,-17.12188720703125,1,1.0,1.0,1.0,1.0,80.00
2021-10-15 09:32:33.212,0.83914,1.5915365,0.0,1.0427238,0.5648006,1.6245981,0.0,0.6060889,0.97868365,1.2515067,0.0,0.8019855,0.53924227,0.36588472,0.0,0.7933459,0.20192575,0.014853612,0.0,0.23978661,774.83514,777.25275,768.3883,782.0879,801.02563,0.0308837890625,-0.02008056640625,1.00518798828125,1.114044189453125,-8.65814208984375,-12.72552490234375,1,1.0,1.0,1.0,1.0,80.00
2021-10-15 09:32:33.721,0.83914,1.5915365,0.0,1.0427238,0.5648006,1.6245981,0.0,0.6060889,0.97868365,1.2515067,0.0,0.8019855,0.53924227,0.36588472,0.0,0.7933459,0.20192575,0.014853612,0.0,0.23978661,803.0403,784.90845,767.5824,794.57874,744.61536,0.01300048828125,-0.0091552734375,1.01373291015625,5.241241455078125,16.31439208984375,-5.63751220703125,1,2.0,1.0,1.0,2.0,80.00
2021-10-15 09:32:34.232,0.83914,1.5915365,1.3510662,1.1087701,0.5648006,1.6245981,1.0421343,1.1794738,0.97868365,1.2515067,1.143415,1.1830494,0.53924227,0.36588472,0.59686303,0.93205345,0.20192575,0.014853612,0.011246736,0.6753734,788.93774,782.49084,807.47253,786.1172,710.7692,-0.10040283203125,-0.0343017578125,1.01629638671875,8.336639404296875,0.07476806640625,-1.62994384765625,1,1.0,1.0,1.0,1.0,80.00
2021-10-15 09:32:34.753,1.1684704,0.8895593,1.3510662,0.9728804,0.6182962,0.031336572,1.0421343,1.2281065,0.8404425,0.3411542,1.143415,1.0109816,0.66817784,0.27200907,0.59686303,0.8119445,0.3996528,0.14031515,0.011246736,0.6331061,813.5165,771.6117,774.83514,819.9634,644.68866,-0.073486328125,-0.0018310546875,0.98614501953125,6.048736572265625,-12.448883056640625,-2.85614013671875,1,1.0,1.0,1.0,1.0,80.00
2021-10-15 09:32:35.267,1.2308737,0.93313366,1.3510662,0.9728804,0.78448117,0.1294437,1.0421343,1.2281065,1.1876696,0.91791344,1.143415,1.0109816,0.696893,0.36146426,0.59686303,0.8119445,0.41128233,0.06579235,0.011246736,0.6331061,776.8498,765.56775,777.6557,783.2967,734.5421,-0.0572509765625,-0.0166015625,1.0101318359375,5.30853271484375,-0.800018310546875,-2.51220703125,1,1.0,1.0,1.0,1.0,75.00
2021-10-15 09:32:35.776,1.3717031,0.84394115,1.3510662,1.3142217,0.8606034,0.2263013,1.0421343,0.8887372,1.4139913,1.1481755,1.143415,0.77922237,0.75243807,0.3614236,0.59686303,0.756979,0.37925205,0.033241566,0.011246736,0.2867714,786.9231,777.25275,780.87915,782.0879,773.6264,-0.078857421875,-0.00885009765625,1.0120849609375,5.330963134765625,-0.800018310546875,1.218719482421875,1,1.0,1.0,1.0,1.0,75.00
2021-10-15 09:32:36.311,1.3230186,0.74543643,1.3510662,1.2829673,0.86428434,0.35246733,1.0421343,0.73995435,1.4405465,1.1566781,1.143415,0.8294124,0.7507621,0.3681862,0.59686303,0.8486636,0.3211145,-0.11915524,0.011246736,0.23593552,785.7143,773.22345,775.64105,789.34064,700.293,-0.03387451171875,0.0042724609375,1.00274658203125,7.304840087890625,-4.486083984375,0.11962890625,1,1.0,1.0,1.0,1.0,75.00
2021-10-15 09:32:36.828,,,,,,,,,,,,,,,,,,,,,,,,,,,,,,,,,,,,,,/muse/elements/blink
2021-10-15 09:32:36.829,1.2222382,0.41838667,1.3510662,1.1454813,0.71780026,0.39592722,1.0421343,0.65744793,1.4405465,1.1566781,1.143415,0.94589835,0.707269,0.3215253,0.59686303,0.79603267,0.27435207,-0.17764094,0.011246736,0.21210144,777.6557,781.685,619.304,794.9817,836.4835,-0.01971435546875,-0.0140380859375,1.01519775390625,2.549591064453125,1.48040771484375,1.099090576171875,1,1.0,1.0,1.0,1.0,75.00
2021-10-15 09:32:37.163,,,,,,,,,,,,,,,,,,,,,,,,,,,,,,,,,,,,,,/muse/elements/blink
2021-10-15 09:32:37.348,0.68827903,0.44403017,1.3510662,0.64514035,0.3459144,0.40196347,1.0421343,0.47951385,1.1891474,0.8207198,1.143415,0.93418574,0.61984867,0.36183047,0.59686303,0.7942204,0.27207124,-0.210403,0.011246736,0.2077899,794.17584,773.6264,786.1172,796.99634,838.0952,-0.03753662109375,-0.00677490234375,1.02813720703125,-1.375732421875,-0.530853271484375,-8.261871337890625,1,1.0,1.0,1.0,1.0,75.00
2021-10-15 09:32:37.876,0.40473175,0.37380606,1.3510662,0.5674427,0.14784907,0.4375566,1.0421343,0.45978987,0.96965617,0.4839185,1.143415,0.9224571,0.5592895,0.41319633,0.59686303,0.7406317,0.2977369,-0.11618107,0.011246736,0.18688215,780.07324,778.86444,780.07324,783.2967,681.3553,-0.014404296875,-0.001220703125,1.017822265625,8.8824462890625,-6.1907958984375,-0.605621337890625,1,1.0,1.0,1.0,1.0,75.00
2021-10-15 09:32:38.381,0.40473175,0.43069968,1.3510662,0.5674427,0.14784907,0.52095366,1.0421343,0.45978987,0.96965617,0.47164997,1.143415,0.9224571,0.5592895,0.51091665,0.59686303,0.7406317,0.2977369,-0.13841388,0.011246736,0.18688215,784.5055,802.23444,774.43225,779.2674,724.4689,-0.001708984375,6.103515625E-4,1.0108642578125,4.254302978515625,-8.2843017578125,2.011260986328125,1,1.0,1.0,1.0,1.0,75.00
2021-10-15 09:32:38.657,,,,,,,,,,,,,,,,,,,,,,,,,,,,,,,,,,,,,,/muse/elements/blink
2021-10-15 09:32:38.898,0.40473175,0.6132561,0.52905667,0.5674427,0.14784907,0.3468767,0.72011054,0.45978987,0.96965617,0.2922758,0.60774124,0.9224571,0.5592895,0.47733933,0.4320805,0.7406317,0.2977369,0.23388569,-0.05437295,0.18688215,821.978,786.52014,801.02563,835.2747,775.2381,-0.0567626953125,0.004150390625,1.01995849609375,4.007568359375,0.829925537109375,-1.233673095703125,1,1.0,1.0,1.0,1.0,75.00
2021-10-15 09:32:39.408,0.40473175,0.7374293,0.64219624,0.5674427,0.14784907,0.3864044,0.85970545,0.45978987,0.96965617,0.5275406,0.67961556,0.9224571,0.5592895,0.50792366,0.43813407,0.7406317,0.2977369,0.22981367,0.016527599,0.18688215,796.1905,775.64105,778.0586,822.381,710.7692,-0.1483154296875,-0.00274658203125,0.99578857421875,16.43402099609375,6.280517578125,23.028564453125,1,2.0,1.0,1.0,2.0,75.00
2021-10-15 09:32:39.921,0.40473175,0.95447165,0.64219624,0.5674427,0.14784907,0.45515615,0.85970545,0.45978987,0.96965617,0.5795901,0.67961556,0.9224571,0.5592895,0.51981163,0.43813407,0.7406317,0.2977369,0.06931873,0.016527599,0.18688215,786.1172,791.3553,798.60803,779.67035,882.01465,-0.1468505859375,0.02203369140625,0.9808349609375,7.91046142578125,-3.09539794921875,-6.048736572265625,1,2.0,1.0,1.0,2.0,75.00
2021-10-15 09:32:40.447,1.3302295,0.95701057,1.1672186,0.5674427,1.0624763,0.38876534,1.0805223,0.45978987,1.4354268,0.6762967,0.89814675,0.9224571,0.989974,0.4399452,0.695738,0.7406317,0.46003595,-0.074749626,0.04633894,0.18688215,819.9634,816.337,832.8571,834.0659,593.1135,-0.0604248046875,-0.01300048828125,1.02337646484375,1.457977294921875,0.934600830078125,-5.615081787109375,1,1.0,1.0,1.0,1.0,75.00
2021-10-15 09:32:40.754,,,,,,,,,,,,,,,,,,,,,,,,,,,,,,,,,,,,,,/muse/elements/blink
2021-10-15 09:32:40.979,1.338408,0.84849936,1.1672186,0.5674427,1.0488985,0.3424944,1.0805223,0.45978987,1.4354268,0.6496691,0.89814675,0.9224571,0.96412027,0.4674586,0.695738,0.7406317,0.43165904,-0.05935806,0.04633894,0.18688215,835.6777,830.4396,754.68866,824.3956,1035.1282,-0.10137939453125,0.02728271484375,1.00738525390625,-5.525360107421875,-13.1591796875,0.11962890625,1,1.0,1.0,1.0,1.0,75.00
2021-10-15 09:32:41.492,1.3695985,0.9137615,1.1672186,0.5674427,1.1562606,0.6560515,1.0805223,0.45978987,1.4136527,0.8677623,0.89814675,0.9224571,0.8917669,0.5468337,0.695738,0.7406317,0.43894672,0.46830916,0.04633894,0.18688215,790.14655,810.293,806.6667,790.54944,692.6374,-0.097900390625,-0.022705078125,0.99774169921875,2.684173583984375,-12.733001708984375,0.07476806640625,1,1.0,1.0,1.0,1.0,75.00
2021-10-15 09:32:42.018,1.3812186,0.95011723,1.1672186,0.5674427,1.1478982,0.81611395,1.0805223,0.45978987,1.3367757,0.8828075,0.89814675,0.9224571,0.83606184,0.64457816,0.695738,0.7406317,0.39390364,0.64651084,0.04633894,0.18688215,770.40295,789.7436,785.31134,772.4176,722.8571,0.02789306640625,-0.01885986328125,1.01995849609375,8.1646728515625,2.87109375,1.89910888671875,1,1.0,1.0,1.0,1.0,75.00
2021-10-15 09:32:42.545,1.3812186,0.91387016,1.1672186,0.5674427,1.1478982,0.76081187,1.0805223,0.45978987,1.3367757,0.8969948,0.89814675,0.9224571,0.83606184,0.5083843,0.695738,0.7406317,0.39390364,0.6264274,0.04633894,0.18688215,792.96704,782.49084,758.315,809.89014,873.95605,-0.0968017578125,-0.0467529296875,0.985107421875,0.665435791015625,7.917938232421875,12.418975830078125,1,1.0,1.0,1.0,1.0,75.00
2021-10-15 09:32:42.943,,,,,,,,,,,,,,,,,,,,,,,,,,,,,,,,,,,,,,/muse/elements/blink
2021-10-15 09:32:43.051,1.3812186,0.64828575,1.1672186,0.5674427,1.1478982,0.39488986,1.0805223,0.45978987,1.3367757,0.60861564,0.89814675,0.9224571,0.83606184,0.3576945,0.695738,0.7406317,0.39390364,0.3022942,0.04633894,0.18688215,736.1539,792.1612,748.6447,747.4359,592.3077,0.03155517578125,0.01690673828125,1.017822265625,4.9945068359375,-13.65264892578125,-18.759307861328125,1,1.0,1.0,1.0,1.0,75.00
2021-10-15 09:32:43.570,1.4239553,0.69269294,1.1672186,1.3180944,1.145598,0.34709716,1.0805223,1.3529902,1.5111384,0.5881931,0.89814675,1.5750598,0.93568337,0.3417424,0.695738,1.1515245,0.53182936,0.2935225,0.04633894,0.44734448,788.1319,778.46155,767.1795,810.293,704.7253,-0.01104736328125,0.0093994140625,1.02203369140625,2.6617431640625,0.179443359375,-2.19818115234375,1,1.0,1.0,1.0,1.0,75.00
2021-10-15 09:32:44.049,,,,,,,,,,,,,,,,,,,,,,,,,,,,,,,,,,,,,,/muse/elements/blink
2021-10-15 09:32:44.096,1.4973097,0.704517,1.1672186,1.3180944,1.2233126,0.15262315,1.0805223,1.3529902,1.5111384,0.5550201,0.89814675,1.5750598,0.9509213,0.37109688,0.695738,1.1515245,0.5426175,0.21980916,0.04633894,0.44734448,902.96704,801.4286,697.8755,900.14655,668.86444,-0.06011962890625,-0.01593017578125,1.018798828125,-0.7177734375,3.93280029296875,-6.452484130859375,1,1.0,1.0,1.0,1.0,75.00
2021-10-15 09:32:44.607,1.4973097,0.704517,1.1672186,1.235781,1.2233126,0.15262315,1.0805223,1.41755,1.5111384,0.5550201,0.89814675,1.5247128,0.9509213,0.37109688,0.695738,1.1637782,0.5426175,0.21980916,0.04633894,0.5238253,647.9121,760.32965,813.1135,661.6117,610.4396,-0.03485107421875,-0.02020263671875,1.029541015625,5.869293212890625,4.059906005859375,1.2261962890625,1,1.0,1.0,1.0,1.0,75.00
2021-10-15 09:32:44.835,,,,,,,,,,,,,,,,,,,,,,,,,,,,,,,,,,,,,,/muse/elements/blink
2021-10-15 09:32:45.127,1.4973097,0.704517,1.1672186,1.235781,1.2233126,0.15262315,1.0805223,1.41755,1.5111384,0.5550201,0.89814675,1.5247128,0.9509213,0.37109688,0.695738,1.1637782,0.5426175,0.21980916,0.04633894,0.5238253,807.8755,778.0586,770.0,805.8608,987.5824,-0.06768798828125,0.00238037109375,1.01531982421875,6.018829345703125,0.904693603515625,-4.3963623046875,1,1.0,1.0,1.0,1.0,75.00
2021-10-15 09:32:45.636,1.4973097,0.704517,1.1672186,1.235781,1.2233126,0.15262315,1.0805223,1.41755,1.5111384,0.5550201,0.89814675,1.5247128,0.9509213,0.37109688,0.695738,1.1637782,0.5426175,0.21980916,0.04633894,0.5238253,796.5934,768.7912,780.4762,794.9817,514.1392,-0.17431640625,-0.1041259765625,0.9793701171875,-3.12530517578125,-0.500946044921875,2.51220703125,1,1.0,1.0,1.0,1.0,70.00
2021-10-15 09:32:45.743,,,,,,,,,,,,,,,,,,,,,,,,,,,,,,,,,,,,,,/muse/elements/blink
2021-10-15 09:32:46.161,1.4973097,0.704517,1.1615887,1.235781,1.2233126,0.15262315,0.9787838,1.41755,1.5111384,0.5550201,0.97883964,1.5247128,0.9509213,0.37109688,0.64355797,1.1637782,0.5426175,0.21980916,-0.26952162,0.5238253,796.99634,781.28204,717.619,813.91943,771.6117,-0.1851806640625,-0.01470947265625,0.9866943359375,10.3778076171875,-1.891632080078125,-4.05242919921875,1,1.0,1.0,1.0,1.0,70.00
2021-10-15 09:32:46.665,1.4973097,0.704517,1.1615887,1.235781,1.2233126,0.15262315,0.9787838,1.41755,1.5111384,0.5550201,0.97883964,1.5247128,0.9509213,0.37109688,0.64355797,1.1637782,0.5426175,0.21980916,-0.26952162,0.5238253,840.5128,798.60803,722.4542,836.08057,822.381,-0.139404296875,-0.01055908203125,0.98052978515625,7.259979248046875,-15.05828857421875,-7.035675048828125,1,2.0,1.0,1.0,2.0,70.00
2021-10-15 09:32:47.168,1.4973097,0.93742204,1.0936931,1.235781,1.2233126,1.0371861,0.9764897,1.41755,1.5111384,0.5479263,0.9601756,1.5247128,0.9509213,0.77785826,0.6370037,1.1637782,0.5426175,0.50748307,-0.23065415,0.5238253,773.6264,772.8205,796.99634,781.28204,697.0696,-0.1170654296875,-0.0247802734375,1.01580810546875,4.448699951171875,-4.508514404296875,-1.9140625,1,2.0,1.0,1.0,2.0,70.00
2021-10-15 09:32:47.677,1.4973097,1.0395163,1.0936931,1.235781,1.2233126,0.85838336,0.9764897,1.41755,1.5111384,0.63501513,0.9601756,1.5247128,0.9509213,0.35106063,0.6370037,1.1637782,0.5426175,0.09217227,-0.23065415,0.5238253,758.315,763.95605,802.23444,772.01465,802.6374,-0.0594482421875,-0.07891845703125,1.02667236328125,5.57769775390625,0.097198486328125,10.774078369140625,1,2.0,1.0,1.0,2.0,70.00
2021-10-15 09:32:47.801,,,,,,,,,,,,,,,,,,,,,,,,,,,,,,,,,,,,,,/muse/elements/blink
2021-10-15 09:32:48.172,,,,,,,,,,,,,,,,,,,,,,,,,,,,,,,,,,,,,,/muse/elements/blink
2021-10-15 09:32:48.203,1.4973097,1.1810019,1.0936931,1.235781,1.2233126,0.8167191,0.9764897,1.41755,1.5111384,0.52677065,0.9601756,1.5247128,0.9509213,0.2028332,0.6370037,1.1637782,0.5426175,0.0026750676,-0.23065415,0.5238253,862.27106,810.293,718.8278,869.12085,914.2491,-0.08770751953125,0.1004638671875,1.047607421875,15.4620361328125,1.15142822265625,17.77984619140625,1,2.0,1.0,1.0,2.0,70.00
2021-10-15 09:32:48.719,1.4973097,1.102265,1.0936931,1.235781,1.2233126,0.6411973,0.9764897,1.41755,1.5111384,0.46736786,0.9601756,1.5247128,0.9509213,0.13332607,0.6370037,1.1637782,0.5426175,-0.0025514844,-0.23065415,0.5238253,792.96704,768.3883,762.74725,809.4872,668.46155,-0.17047119140625,0.072509765625,1.00506591796875,-4.0374755859375,-21.4434814453125,-3.072967529296875,1,2.0,1.0,1.0,2.0,70.00
2021-10-15 09:32:49.172,,,,,,,,,,,,,,,,,,,,,,,,,,,,,,,,,,,,,,/muse/elements/blink
2021-10-15 09:32:49.236,1.4973097,1.2451566,1.0936931,1.235781,1.2233126,0.6032979,0.9764897,1.41755,1.5111384,0.32779613,0.9601756,1.5247128,0.9509213,0.11083907,0.6370037,1.1637782,0.5426175,0.10516277,-0.23065415,0.5238253,781.685,771.6117,842.1245,790.14655,792.1612,-0.13861083984375,0.0899658203125,0.98907470703125,5.330963134765625,-5.084228515625,-4.90478515625,1,2.0,1.0,4.0,2.0,70.00
2021-10-15 09:32:49.766,1.4973097,1.2451566,1.0936931,1.235781,1.2233126,0.6032979,0.9764897,1.41755,1.5111384,0.32779613,0.9601756,1.5247128,0.9509213,0.11083907,0.6370037,1.1637782,0.5426175,0.10516277,-0.23065415,0.5238253,778.46155,833.2601,872.3443,768.3883,643.0769,-0.1800537109375,0.04376220703125,1.002197265625,-4.463653564453125,-18.834075927734375,-0.964508056640625,1,2.0,1.0,2.0,2.0,70.00
2021-10-15 09:32:50.271,1.4973097,1.2451566,1.0936931,1.235781,1.2233126,0.6032979,0.9764897,1.41755,1.5111384,0.32779613,0.9601756,1.5247128,0.9509213,0.11083907,0.6370037,1.1637782,0.5426175,0.10516277,-0.23065415,0.5238253,782.0879,804.2491,767.1795,803.8461,650.7326,-0.11968994140625,0.1041259765625,0.9918212890625,4.807586669921875,-8.433837890625,-7.454376220703125,1,2.0,1.0,1.0,2.0,70.00
2021-10-15 09:32:50.807,1.5481973,1.2451566,1.0936931,1.0059358,1.3166771,0.6032979,0.9764897,0.7061618,1.077601,0.32779613,0.9601756,1.2241359,0.5031592,0.11083907,0.6370037,1.003479,0.2272291,0.10516277,-0.23065415,0.6036176,792.96704,792.1612,814.7253,809.0842,809.4872,-0.05426025390625,0.04058837890625,1.01995849609375,2.04864501953125,-8.665618896484375,7.40203857421875,1,1.0,1.0,2.0,1.0,70.00
2021-10-15 09:32:51.325,1.5788518,1.2451566,1.0936931,1.1804483,1.3528278,0.6032979,0.9764897,0.93463784,1.2538081,0.32779613,0.9601756,1.4544225,0.6210616,0.11083907,0.6370037,1.0926437,0.37294063,0.10516277,-0.23065415,0.7610817,798.20514,834.87177,872.3443,796.1905,669.2674,-0.01641845703125,0.04412841796875,1.017822265625,4.725341796875,-3.36456298828125,-4.2767333984375,1,1.0,1.0,1.0,1.0,70.00
2021-10-15 09:32:51.848,1.503947,1.2451566,1.0936931,1.265184,1.260298,0.6032979,0.9764897,0.9862844,1.2530559,0.32779613,0.9601756,1.4313132,0.74702185,0.11083907,0.6370037,1.0666063,0.3932883,0.10516277,-0.23065415,0.7491743,836.8865,833.2601,899.34064,845.34796,880.40295,-0.08721923828125,-0.01507568359375,0.966552734375,3.6785888671875,9.757232666015625,-11.357269287109375,1,1.0,1.0,1.0,1.0,70.00
2021-10-15 09:32:52.259,,,,,,,,,,,,,,,,,,,,,,,,,,,,,,,,,,,,,,/muse/elements/blink
2021-10-15 09:32:52.358,1.4200728,1.2451566,1.0936931,1.3352134,1.1358271,0.6032979,0.9764897,1.0677297,1.2330564,0.32779613,0.9601756,1.3104453,0.8856857,0.11083907,0.6370037,1.0908988,0.42035997,0.10516277,-0.23065415,0.8036624,603.5897,836.8865,913.44324,608.8278,721.6484,-0.0064697265625,0.0635986328125,1.00567626953125,13.555450439453125,-1.30096435546875,14.43023681640625,1,1.0,1.0,1.0,1.0,70.00
2021-10-15 09:32:52.506,,,,,,,,,,,,,,,,,,,,,,,,,,,,,,,,,,,,,,/muse/elements/blink
2021-10-15 09:32:52.886,1.3021252,1.2451566,1.0936931,1.3322185,0.91030717,0.6032979,0.9764897,1.0204508,1.1335549,0.32779613,0.9601756,1.1558547,0.9461109,0.11083907,0.6370037,0.9997205,0.36649022,0.10516277,-0.23065415,0.70366293,804.65204,772.4176,434.7619,776.04395,655.9707,-0.1024169921875,0.15069580078125,1.0257568359375,0.3289794921875,-4.194488525390625,2.086029052734375,1,1.0,1.0,1.0,1.0,70.00
2021-10-15 09:32:53.398,1.3969785,1.2451566,1.0936931,1.3322185,0.9701614,0.6032979,0.9764897,1.0204508,1.105594,0.32779613,0.9601756,1.1558547,0.9550482,0.11083907,0.6370037,0.9997205,0.29772028,0.10516277,-0.23065415,0.70366293,742.1978,760.32965,765.9707,755.09155,755.09155,-0.07452392578125,0.1583251953125,0.9998779296875,2.64678955078125,-2.46734619140625,-5.45806884765625,1,1.0,1.0,1.0,1.0,70.00
2021-10-15 09:32:53.905,1.3969785,0.7266886,1.0936931,1.3322185,0.9701614,-0.19636156,0.9764897,1.0204508,1.105594,0.28909367,0.9601756,1.1558547,0.9550482,0.085921735,0.6370037,0.9997205,0.29772028,-0.43747398,-0.23065415,0.70366293,790.14655,761.13556,749.45056,803.44324,715.2015,-0.09075927734375,0.12060546875,1.0018310546875,3.446807861328125,-6.35528564453125,-7.22259521484375,1,1.0,1.0,1.0,1.0,70.00
2021-10-15 09:32:54.421,1.2848046,0.64364225,1.0936931,1.3289577,1.1082392,0.029137053,0.9764897,1.2391492,0.8949735,0.31422758,0.9601756,0.88082343,1.0471575,0.106643766,0.6370037,0.8824003,0.109989546,-0.44719857,-0.23065415,0.24398059,806.26373,764.35895,779.67035,807.47253,747.8388,-0.1656494140625,0.10321044921875,1.00421142578125,2.983245849609375,-0.95703125,-5.749664306640625,1,1.0,1.0,1.0,1.0,70.00
2021-10-15 09:32:54.949,1.2055588,0.62001145,1.0936931,1.3289577,1.011423,0.055696525,0.9764897,1.2391492,0.9086368,0.32929513,0.9601756,0.88082343,0.92130697,0.15964548,0.6370037,0.8824003,0.14977482,-0.4170778,-0.23065415,0.24398059,820.3663,871.9414,919.0842,814.7253,817.1429,-0.14324951171875,0.069091796875,0.9993896484375,4.089813232421875,-7.678680419921875,-3.401947021484375,1,1.0,1.0,1.0,1.0,70.00
2021-10-15 09:32:55.482,1.1879678,0.5447541,1.0936931,1.1375523,0.93992317,0.1531655,0.9764897,0.9887192,0.8750184,0.16048633,0.9601756,1.0801034,0.81402117,0.19675964,0.6370037,0.77249235,0.18264873,-0.405839,-0.23065415,0.21652982,794.57874,843.3333,838.49817,808.2784,569.7436,-0.13214111328125,0.05474853515625,1.0244140625,0.52337646484375,-7.125396728515625,-3.252410888671875,1,1.0,1.0,1.0,1.0,70.00
2021-10-15 09:32:55.719,,,,,,,,,,,,,,,,,,,,,,,,,,,,,,,,,,,,,,/muse/elements/blink
2021-10-15 09:32:55.990,1.1957247,0.5376354,1.0936931,1.1172962,0.72480845,0.15306401,0.9764897,0.66717285,0.7337268,-0.04585195,0.9601756,0.9962337,0.63732684,0.2810176,0.6370037,0.7239289,0.19144233,-0.34858027,-0.23065415,0.21370599,772.8205,790.54944,775.64105,790.9524,764.7619,-0.0784912109375,0.03424072265625,1.0208740234375,8.95721435546875,-6.65435791015625,2.908477783203125,1,1.0,1.0,1.0,1.0,75.00
2021-10-15 09:32:56.500,1.1957247,0.5376354,1.0936931,1.1172962,0.72480845,0.15306401,0.9764897,0.66717285,0.7337268,-0.04585195,0.9601756,0.9962337,0.63732684,0.2810176,0.6370037,0.7239289,0.19144233,-0.34858027,-0.23065415,0.21370599,834.4689,801.02563,735.34796,840.5128,862.27106,-0.119384765625,0.02899169921875,1.01611328125,-2.938385009765625,0.179443359375,-17.2564697265625,1,1.0,1.0,1.0,1.0,75.00
2021-10-15 09:32:57.014,1.1957247,0.5376354,1.0936931,1.1068321,0.72480845,0.15306401,0.9764897,0.6914762,0.7337268,-0.04585195,0.9601756,0.9962337,0.63732684,0.2810176,0.6370037,0.7523018,0.19144233,-0.34858027,-0.23065415,0.24424286,805.4579,791.75824,780.07324,810.293,676.1172,0.011962890625,0.0111083984375,1.00274658203125,4.3365478515625,-6.646881103515625,-10.24322509765625,1,1.0,1.0,1.0,1.0,75.00
2021-10-15 09:32:57.521,1.1957247,0.96600986,1.0936931,1.1068321,0.72480845,1.3050076,0.9764897,0.6914762,0.7337268,0.6702945,0.9601756,0.9962337,0.63732684,0.5250862,0.6370037,0.7523018,0.19144233,0.0070077777,-0.23065415,0.24424286,783.2967,777.25275,794.57874,782.8938,971.8681,0.0308837890625,-0.0048828125,1.02410888671875,2.8411865234375,-4.358978271484375,-4.867401123046875,1,1.0,1.0,1.0,1.0,75.00
2021-10-15 09:32:58.010,,,,,,,,,,,,,,,,,,,,,,,,,,,,,,,,,,,,,,/muse/elements/blink
2021-10-15 09:32:58.041,1.1957247,0.96754164,1.0936931,1.1068321,0.72480845,1.0864153,0.9764897,0.6914762,0.7337268,0.8842105,0.9601756,0.9962337,0.63732684,0.50029176,0.6370037,0.7523018,0.19144233,-0.114778936,-0.23065415,0.24424286,803.8461,770.80585,740.58606,819.9634,1121.3553,0.0325927734375,0.00518798828125,1.01806640625,1.472930908203125,3.013153076171875,-6.317901611328125,1,1.0,1.0,1.0,1.0,75.00
2021-10-15 09:32:58.553,1.1957247,1.012439,1.0936931,1.1068321,0.72480845,1.2140063,0.9764897,0.6914762,0.7337268,1.208018,0.9601756,0.9962337,0.63732684,0.530722,0.6370037,0.7523018,0.19144233,-0.14463617,-0.23065415,0.24424286,787.326,735.34796,751.06226,789.34064,641.8681,0.0482177734375,0.0721435546875,1.02276611328125,2.459869384765625,-0.04486083984375,3.940277099609375,1,2.0,1.0,1.0,2.0,75.00
2021-10-15 09:32:59.087,1.1957247,1.0513964,1.0936931,1.1068321,0.72480845,1.1858847,0.9764897,0.6914762,0.7337268,1.1914123,0.9601756,0.9962337,0.63732684,0.5189527,0.6370037,0.7523018,0.19144233,-0.21072878,-0.23065415,0.24424286,832.4542,745.82416,752.674,854.21246,899.7436,-0.016845703125,0.00152587890625,1.016845703125,0.37384033203125,4.119720458984375,2.235565185546875,1,2.0,1.0,1.0,2.0,75.00
2021-10-15 09:32:59.591,1.1957247,1.0759441,1.0936931,1.1068321,0.72480845,1.2708036,0.9764897,0.6914762,0.7337268,1.1620294,0.9601756,0.9962337,0.63732684,0.58994997,0.6370037,0.7523018,0.19144233,-0.059854534,-0.23065415,0.24424286,794.17584,789.34064,826.4103,785.31134,659.59705,-0.26141357421875,-0.05291748046875,0.9833984375,6.258087158203125,-4.6356201171875,-14.019012451171875,1,2.0,1.0,1.0,2.0,75.00
2021-10-15 09:33:00.112,1.256773,1.0391957,1.0936931,1.1068321,1.0576947,1.134493,0.9764897,0.6914762,1.4527724,1.0659851,0.9601756,0.9962337,0.87738955,0.5616985,0.6370037,0.7523018,0.45911312,0.04201201,-0.23065415,0.24424286,785.31134,813.5165,831.2454,789.7436,719.2308,-0.07958984375,0.0037841796875,1.0272216796875,8.994598388671875,-6.856231689453125,-6.53472900390625,1,1.0,1.0,1.0,1.0,75.00
2021-10-15 09:33:00.624,1.256773,1.0391957,1.0936931,1.1068321,1.0576947,1.134493,0.9764897,0.6914762,1.4527724,1.0659851,0.9601756,0.9962337,0.87738955,0.5616985,0.6370037,0.7523018,0.45911312,0.04201201,-0.23065415,0.24424286,793.7729,795.38464,811.0989,809.89014,740.58606,-0.0697021484375,0.0135498046875,1.0225830078125,5.764617919921875,-8.62823486328125,-4.388885498046875,1,1.0,1.0,1.0,1.0,75.00
2021-10-15 09:33:00.758,,,,,,,,,,,,,,,,,,,,,,,,,,,,,,,,,,,,,,/muse/elements/blink
2021-10-15 09:33:01.126,1.2542367,0.8715727,1.0936931,1.1068321,1.0880111,0.87786376,0.9764897,0.6914762,1.4457568,0.89252055,0.9601756,0.9962337,0.8669607,0.6761641,0.6370037,0.7523018,0.4176669,0.12888107,-0.23065415,0.24424286,801.8315,784.90845,790.54944,810.293,695.05493,-0.10308837890625,-0.00518798828125,1.00714111328125,6.02630615234375,3.75335693359375,0.76263427734375,1,1.0,1.0,1.0,1.0,75.00
2021-10-15 09:33:01.198,,,,,,,,,,,,,,,,,,,,,,,,,,,,,,,,,,,,,,/muse/elements/blink
2021-10-15 09:33:01.638,1.2542367,0.9376077,1.0936931,1.1068321,1.0880111,0.9158199,0.9764897,0.6914762,1.4457568,0.9369838,0.9601756,0.9962337,0.8669607,0.6616887,0.6370037,0.7523018,0.4176669,0.16301994,-0.23065415,0.24424286,773.22345,763.95605,765.16486,780.4762,914.2491,-0.0941162109375,0.006591796875,1.0091552734375,5.21881103515625,-2.51220703125,-1.4654541015625,1,1.0,1.0,1.0,1.0,75.00
2021-10-15 09:33:02.163,1.2542367,1.05346,1.1768157,1.1068321,1.0880111,0.8569215,1.3915582,0.6914762,1.4457568,0.976405,1.2473086,0.9962337,0.8669607,0.6081209,0.80574334,0.7523018,0.4176669,0.1739556,0.5130704,0.24424286,818.7546,774.0293,761.53845,803.0403,681.3553,-0.08251953125,0.00286865234375,1.021240234375,6.0711669921875,2.55706787109375,4.605712890625,1,1.0,1.0,1.0,1.0,75.00
2021-10-15 09:33:02.665,1.2542367,1.1092767,1.1210877,1.1068321,1.0880111,0.8214321,1.2786998,0.6914762,1.4457568,0.9491609,1.2548499,0.9962337,0.8669607,0.54364955,0.76994735,0.7523018,0.4176669,0.15484093,0.43565297,0.24424286,767.98535,877.1795,815.12823,746.63007,666.8498,-0.10406494140625,0.02227783203125,1.01580810546875,5.689849853515625,-2.52716064453125,-7.140350341796875,1,2.0,1.0,1.0,2.0,75.00
2021-10-15 09:33:02.878,,,,,,,,,,,,,,,,,,,,,,,,,,,,,,,,,,,,,,/muse/elements/blink
2021-10-15 09:33:03.174,1.3112367,1.1219748,1.1668766,1.1068321,1.1022091,0.7417696,1.160539,0.6914762,1.2340642,0.71151596,1.1888155,0.9962337,1.0207834,0.5135121,0.757349,0.7523018,0.36914575,0.12307507,0.3219202,0.24424286,793.36993,836.08057,838.0952,811.50183,1111.6849,-0.08544921875,0.0057373046875,1.0152587890625,5.36834716796875,1.099090576171875,-4.538421630859375,1,1.0,1.0,1.0,1.0,75.00
2021-10-15 09:33:03.699,1.3225621,0.97808135,0.99616045,1.4667472,1.079418,0.80017406,0.7534187,1.1715565,1.242171,0.6548441,0.8641301,0.9813796,0.9312871,0.53596634,0.6816923,0.7827224,0.2563344,0.039522737,0.13481435,0.37180042,779.2674,796.99634,701.9048,776.4469,769.19415,-0.04669189453125,0.0118408203125,1.01678466796875,6.751556396484375,-4.119720458984375,-0.321502685546875,1,1.0,1.0,1.0,1.0,75.00
2021-10-15 09:33:04.222,1.3196446,1.175601,0.99616045,1.4899913,1.0024102,0.559778,0.7534187,1.1450267,1.242171,0.5271058,0.8641301,0.99519336,0.8875603,0.5104879,0.6816923,0.7639883,0.38070711,0.2199854,0.13481435,0.50028944,776.8498,773.6264,741.39197,780.4762,585.05493,-0.05419921875,0.00933837890625,1.0284423828125,7.005767822265625,-3.93280029296875,-4.747772216796875,1,1.0,1.0,1.0,1.0,75.00
2021-10-15 09:33:04.745,1.2189487,1.175601,0.99616045,1.2874593,0.8576631,0.559778,0.7534187,1.0654393,1.0457748,0.5271058,0.8641301,1.0473425,0.6479303,0.5104879,0.6816923,0.6455886,0.49358436,0.2199854,0.13481435,0.6205099,804.2491,778.86444,778.46155,788.1319,679.7436,-0.046142578125,-0.00164794921875,1.01080322265625,4.66552734375,-5.390777587890625,-4.044952392578125,1,1.0,1.0,1.0,1.0,75.00
2021-10-15 09:33:05.255,1.1865743,1.100026,0.99616045,1.0293888,0.84016037,0.6770954,0.7534187,0.96146053,0.89808244,0.8887239,0.8641301,0.8836891,0.62255317,0.48662958,0.6816923,0.5754411,0.5428067,0.12073872,0.13481435,0.52055883,775.2381,743.8095,780.07324,804.65204,623.3333,-0.03564453125,0.0025634765625,1.01959228515625,7.1478271484375,-1.5252685546875,-0.859832763671875,1,1.0,1.0,1.0,1.0,75.00
2021-10-15 09:33:05.458,,,,,,,,,,,,,,,,,,,,,,,,,,,,,,,,,,,,,,/muse/elements/blink
2021-10-15 09:33:05.778,1.1091386,0.86573446,0.99616045,0.9988556,0.9693807,0.76707184,0.7534187,1.057415,1.3617015,0.99338514,0.8641301,1.3482344,0.6421478,0.48261333,0.6816923,0.8045889,0.4613619,-0.1871171,0.13481435,0.3992843,801.8315,797.3993,797.3993,792.96704,890.4762,-0.13037109375,0.0447998046875,1.00054931640625,9.712371826171875,-10.101165771484375,-7.65625,1,1.0,1.0,1.0,1.0,65.00
2021-10-15 09:33:06.296,1.1727855,0.86573446,0.99616045,0.97233444,1.082499,0.76707184,0.7534187,1.0710019,1.3575219,0.99338514,0.8641301,1.3432467,0.6556709,0.48261333,0.6816923,0.89608383,0.2246257,-0.1871171,0.13481435,0.079637766,813.1135,799.011,780.87915,813.5165,713.5897,-0.08367919921875,0.0916748046875,1.006591796875,2.61688232421875,-6.003875732421875,-2.51220703125,1,1.0,1.0,1.0,1.0,65.00
2021-10-15 09:33:06.804,1.2029771,0.9228046,0.99616045,0.9630831,1.088199,0.5779267,0.7534187,1.0252837,1.3575219,0.9004065,0.8641301,1.3335068,0.67130464,0.4406802,0.6816923,0.9686273,0.21051794,-0.14019379,0.13481435,0.23892583,812.71063,823.5897,913.0403,821.1722,969.85345,-0.06329345703125,0.05169677734375,1.02276611328125,5.084228515625,-7.559051513671875,-6.4300537109375,1,1.0,1.0,1.0,1.0,65.00
2021-10-15 09:33:07.323,1.2029771,1.2311546,0.99616045,0.7872595,1.088199,0.61812747,0.7534187,0.48648337,1.3575219,0.6189463,0.8641301,0.99505526,0.67130464,0.4988869,0.6816923,0.7341646,0.21051794,-0.044244543,0.13481435,0.28613454,784.5055,825.2015,817.5458,794.9817,944.87177,-0.0557861328125,0.032470703125,1.01507568359375,5.345916748046875,-10.160980224609375,-4.4561767578125,1,1.0,1.0,1.0,1.0,65.00
2021-10-15 09:33:07.844,0.5910096,1.134356,0.99616045,0.7872595,0.63507605,0.50653857,0.7534187,0.48648337,0.98806846,0.63064283,0.8641301,0.99505526,0.67838854,0.448637,0.6816923,0.7341646,0.19455281,-0.116428226,0.13481435,0.28613454,796.99634,801.02563,805.4579,789.34064,593.1135,-0.04327392578125,0.02239990234375,1.0213623046875,5.839385986328125,-4.867401123046875,-6.280517578125,1,1.0,1.0,1.0,1.0,65.00
2021-10-15 09:33:08.351,0.85529786,1.163715,0.99616045,0.96428955,1.0965871,0.6394451,0.7534187,0.97351825,1.117807,0.755341,0.8641301,1.0172503,0.8522954,0.48268524,0.6816923,0.88736427,0.39476088,-0.043227267,0.13481435,0.39723045,795.78754,782.8938,790.14655,805.8608,770.80585,-0.03253173828125,0.02020263671875,1.0146484375,4.792633056640625,-2.76641845703125,-1.712188720703125,1,1.0,1.0,1.0,1.0,65.00
2021-10-15 09:33:08.383,,,,,,,,,,,,,,,,,,,,,,,,,,,,,,,,,,,,,,/muse/elements/blink
2021-10-15 09:33:08.860,0.91813815,0.88424855,0.99616045,0.96428955,1.1814393,0.49435678,0.7534187,0.97351825,1.1176151,0.69473374,0.8641301,1.0172503,0.88739026,0.40096635,0.6816923,0.88736427,0.425074,-0.05850331,0.13481435,0.39723045,849.3773,766.3736,753.0769,836.8865,950.5128,-0.04833984375,0.0255126953125,1.0167236328125,7.3272705078125,-0.46356201171875,-0.52337646484375,1,1.0,1.0,1.0,1.0,65.00
2021-10-15 09:33:09.389,1.0511487,0.93110263,0.99616045,0.96428955,1.356201,0.6304944,0.7534187,0.97351825,1.0995861,0.6688328,0.8641301,1.0172503,1.002273,0.45234323,0.6816923,0.88736427,0.55961347,0.057469632,0.13481435,0.39723045,821.1722,817.9487,871.9414,825.6044,685.38464,-0.072509765625,0.02813720703125,1.01019287109375,5.016937255859375,-2.654266357421875,-1.801910400390625,1,1.0,1.0,1.0,1.0,65.00
2021-10-15 09:33:09.891,1.0511487,0.93110263,0.99616045,0.96428955,1.356201,0.6304944,0.7534187,0.97351825,1.0995861,0.6688328,0.8641301,1.0172503,1.002273,0.45234323,0.6816923,0.88736427,0.55961347,0.057469632,0.13481435,0.39723045,792.5641,819.5604,831.6484,781.685,785.31134,-0.0704345703125,0.03033447265625,1.0118408203125,3.87298583984375,-0.43365478515625,0.740203857421875,1,1.0,1.0,1.0,1.0,65.00
2021-10-15 09:33:10.415,0.9513284,0.93110263,0.99616045,0.96428955,1.0254481,0.6304944,0.7534187,0.97351825,1.3620275,0.6688328,0.8641301,1.0172503,0.96795654,0.45234323,0.6816923,0.88736427,0.3053863,0.057469632,0.13481435,0.39723045,801.8315,807.8755,834.0659,816.337,740.989,-0.1109619140625,0.019775390625,1.00799560546875,6.781463623046875,-0.10467529296875,2.370147705078125,1,1.0,1.0,1.0,1.0,65.00
2021-10-15 09:33:10.949,1.0921348,1.1891084,0.99616045,0.96428955,0.91307425,0.43536428,0.7534187,0.97351825,1.3742982,0.85458463,0.8641301,1.0172503,1.0139575,0.72444785,0.6816923,0.88736427,0.44615534,-0.065781154,0.13481435,0.39723045,804.65204,828.8278,838.0952,806.26373,736.55676,-0.13262939453125,0.06024169921875,1.00311279296875,6.14593505859375,-1.128997802734375,0.456085205078125,1,1.0,1.0,1.0,1.0,65.00
2021-10-15 09:33:11.041,,,,,,,,,,,,,,,,,,,,,,,,,,,,,,,,,,,,,,/muse/elements/blink
2021-10-15 09:33:11.481,1.3669013,1.2092092,0.99616045,0.96428955,0.8727064,0.34524357,0.7534187,0.97351825,1.2563072,0.85458463,0.8641301,1.0172503,1.0518686,0.70328665,0.6816923,0.88736427,0.47892538,-0.08837295,0.13481435,0.39723045,796.99634,813.5165,776.8498,801.02563,780.87915,-0.11767578125,0.052490234375,0.97857666015625,5.211334228515625,-13.989105224609375,-3.45428466796875,1,1.0,1.0,1.0,1.0,65.00
2021-10-15 09:33:11.996,1.3902582,1.3392453,0.99616045,1.3156797,1.0830767,1.0128212,0.7534187,1.068284,1.2894095,1.2083548,0.8641301,1.3621765,1.103241,0.74463475,0.6816923,0.9447281,0.5530313,0.1397457,0.13481435,0.45458224,779.67035,801.4286,784.90845,770.40295,694.2491,-0.075927734375,0.04742431640625,0.98291015625,5.99639892578125,-6.512298583984375,-4.433746337890625,1,1.0,1.0,4.0,1.0,65.00
2021-10-15 09:33:12.522,1.4396656,1.3979611,0.99616045,1.402037,1.171022,1.135103,0.7534187,1.1239704,1.2427561,1.2040093,0.8641301,1.3668905,1.0983719,0.67280185,0.6816923,0.94601107,0.514643,0.20149058,0.13481435,0.5430923,799.81683,785.7143,724.87177,813.1135,684.9817,-0.1011962890625,0.0252685546875,1.0130615234375,5.84686279296875,-4.7552490234375,-6.960906982421875,1,1.0,1.0,2.0,1.0,65.00
2021-10-15 09:33:13.031,1.6038716,1.4381007,0.99616045,1.5074834,1.399001,1.279599,0.7534187,1.1712815,1.2060994,1.2040093,0.8641301,1.2856556,1.0864296,0.6322685,0.6816923,0.9129676,0.5116624,0.28447238,0.13481435,0.5258816,783.69965,757.1062,730.5128,799.41394,750.2564,-0.09661865234375,0.03253173828125,1.0045166015625,5.630035400390625,-3.715972900390625,-1.233673095703125,1,1.0,1.0,1.0,1.0,65.00
2021-10-15 09:33:13.553,1.7453959,0.9767544,0.99616045,1.6094873,1.544401,0.64155716,0.7534187,1.2873082,1.1576022,0.42589256,0.8641301,1.2782501,1.1271873,0.34209013,0.6816923,0.88908726,0.48838413,-0.15151136,0.13481435,0.4714718,813.5165,780.87915,689.41394,808.2784,648.315,-0.03741455078125,0.02447509765625,1.017333984375,6.1309814453125,-7.080535888671875,-10.579681396484375,1,1.0,1.0,1.0,1.0,65.00
2021-10-15 09:33:14.058,1.7995408,0.94038385,0.99616045,1.6433402,1.5192729,0.7891223,0.7534187,1.3022015,1.1632164,0.5121911,0.8641301,1.0967457,1.0451665,0.3854644,0.6816923,0.8229414,0.40286085,-0.12729064,0.13481435,0.20538005,795.78754,756.7033,689.011,794.9817,737.3626,-0.02337646484375,0.0047607421875,1.0167236328125,4.08233642578125,-6.639404296875,0.6280517578125,1,1.0,1.0,1.0,1.0,65.00
2021-10-15 09:33:14.576,1.4460865,0.94038385,0.99616045,1.3557019,1.3491371,0.7891223,0.7534187,1.1947621,1.0672681,0.5121911,0.8641301,0.9236127,0.9636778,0.3854644,0.6816923,0.86382324,0.35887772,-0.12729064,0.13481435,0.32663333,785.31134,756.7033,713.1868,783.69965,776.4469,0.05621337890625,0.010986328125,1.02813720703125,5.4132080078125,-3.1103515625,-10.803985595703125,1,1.0,1.0,1.0,1.0,65.00
2021-10-15 09:33:14.849,,,,,,,,,,,,,,,,,,,,,,,,,,,,,,,,,,,,,,/muse/elements/blink
2021-10-15 09:33:15.084,1.4146298,1.0294886,0.99616045,1.1523503,1.3116716,1.3217807,0.7534187,1.088436,1.0853971,0.82157797,0.8641301,0.93945426,0.927729,0.5180623,0.6816923,0.8725045,0.33837995,0.01766545,0.13481435,0.35281426,834.87177,741.39197,718.4249,838.0952,848.97437,0.10174560546875,-1.8310546875E-4,1.01177978515625,8.560943603515625,-4.90478515625,-3.39447021484375,1,1.0,1.0,4.0,1.0,65.00
2021-10-15 09:33:15.533,,,,,,,,,,,,,,,,,,,,,,,,,,,,,,,,,,,,,,/muse/elements/blink
2021-10-15 09:33:15.604,1.347988,1.1925191,0.99616045,1.1523503,1.380802,1.4014393,0.7534187,1.088436,1.0480627,0.83965063,0.8641301,0.93945426,0.9360655,0.6274668,0.6816923,0.8725045,0.33102772,0.10536541,0.13481435,0.35281426,836.8865,842.9304,880.40295,835.2747,784.5055,0.10064697265625,0.01116943359375,1.0247802734375,6.198272705078125,-4.912261962890625,-3.461761474609375,1,1.0,1.0,1.0,1.0,65.00
2021-10-15 09:33:16.148,1.347988,1.1925191,0.99616045,1.1523503,1.380802,1.4014393,0.7534187,1.088436,1.0480627,0.83965063,0.8641301,0.93945426,0.9360655,0.6274668,0.6816923,0.8725045,0.33102772,0.10536541,0.13481435,0.35281426,793.7729,835.6777,861.8681,772.01465,691.02563,0.06500244140625,-3.0517578125E-4,1.0059814453125,6.093597412109375,-1.77947998046875,3.895416259765625,1,1.0,1.0,1.0,1.0,75.00
2021-10-15 09:33:16.680,1.347988,1.2345618,0.99616045,1.1523503,1.380802,1.426988,0.7534187,1.088436,1.0480627,0.83965063,0.8641301,0.93945426,0.9360655,0.65572596,0.6816923,0.8725045,0.33102772,0.14814126,0.13481435,0.35281426,807.0696,823.9927,800.6227,806.6667,651.9414,0.04522705078125,0.0084228515625,0.9984130859375,4.71038818359375,-0.007476806640625,-0.336456298828125,1,1.0,1.0,1.0,1.0,75.00
2021-10-15 09:33:17.208,1.347988,1.0787319,0.99616045,1.1523503,1.380802,0.5353184,0.7534187,1.088436,1.0480627,0.41466177,0.8641301,0.93945426,0.9360655,0.17420991,0.6816923,0.8725045,0.33102772,1.3043874E-4,0.13481435,0.35281426,894.5055,793.36993,691.4286,905.38464,664.43225,0.088623046875,0.00396728515625,0.98663330078125,1.592559814453125,-46.528167724609375,-30.124053955078125,1,1.0,1.0,1.0,1.0,75.00
2021-10-15 09:33:17.750,1.347988,1.0787319,0.99616045,1.1523503,1.380802,0.5353184,0.7534187,1.088436,1.0480627,0.41466177,0.8641301,0.93945426,0.9360655,0.17420991,0.6816923,0.8725045,0.33102772,1.3043874E-4,0.13481435,0.35281426,826.4103,790.9524,745.42126,814.3223,842.9304,0.1363525390625,0.0126953125,1.0152587890625,6.661834716796875,1.734619140625,-3.416900634765625,1,2.0,1.0,1.0,2.0,75.00
2021-10-15 09:33:18.057,,,,,,,,,,,,,,,,,,,,,,,,,,,,,,,,,,,,,,/muse/elements/blink
2021-10-15 09:33:18.258,1.347988,1.0787319,0.99616045,1.1523503,1.380802,0.5353184,0.7534187,1.088436,1.0480627,0.41466177,0.8641301,0.93945426,0.9360655,0.17420991,0.6816923,0.8725045,0.33102772,1.3043874E-4,0.13481435,0.35281426,873.5531,829.6337,740.58606,833.663,822.7839,0.08612060546875,0.01629638671875,0.9912109375,4.18701171875,-50.027313232421875,-32.9278564453125,1,2.0,1.0,1.0,2.0,75.00
2021-10-15 09:33:18.354,,,,,,,,,,,,,,,,,,,,,,,,,,,,,,,,,,,,,,/muse/elements/blink
