Delta_TP9,Delta_AF7,Delta_AF8,Delta_TP10,Theta_TP9,Theta_AF7,Theta_AF8,Theta_TP10,Alpha_TP9,Alpha_AF7,Alpha_AF8,Alpha_TP10,Beta_TP9,Beta_AF7,Beta_AF8,Beta_TP10,Gamma_TP9,Gamma_AF7,Gamma_AF8,Gamma_TP10,RAW_TP9,RAW_AF7,RAW_AF8,RAW_TP10,AUX_RIGHT,Accelerometer_X,Accelerometer_Y,Accelerometer_Z,Gyro_X,Gyro_Y,Gyro_Z,HeadBandOn,HSI_TP9,HSI_AF7,HSI_AF8,HSI_TP10,Battery,Class
0.751642543,1.137731668,1.241092001,0.434001523,0.432455817,0.364035064,1.142506116,0.5305012,1.093901038,0.21256436,1.039817565,1.130165377,0.572833204,0.360753705,0.248279696,0.504697909,-0.006401748,-0.2669846,-0.368987837,0.148265573,817.5457875,786.1172161,784.1025641,835.2747253,899.3406593,-0.254822,0.189148,0.967285,6.624451,-3.529053,-0.755157,1.0,1.0,1.0,1.0,1.0,55.0,2
0.751642543,1.137731668,1.2992108,0.434001523,0.432455817,0.364035064,1.170195359,0.5305012,1.093901038,0.21256436,1.038513105,1.130165377,0.572833204,0.360753705,0.295778982,0.504697909,-0.006401748,-0.2669846,-0.424164179,0.148265573,784.9084249,792.1611722,788.1318681,776.043956,705.1282051,-0.253479,0.190308,0.972778,5.121613,-4.157104,-2.13089,1.0,1.0,1.0,1.0,1.0,55.0,2
0.751642543,1.15608975,0.558157739,0.434001523,0.432455817,0.287083423,0.384313825,0.5305012,1.093901038,0.457128552,0.617499442,1.130165377,0.572833204,0.194026158,0.315529221,0.504697909,-0.006401748,-0.343757764,-0.389931317,0.148265573,783.6996337,791.7582418,809.8901099,777.6556777,547.1794872,-0.256958,0.177124,0.978088,5.016937,-3.671112,-2.871094,1.0,1.0,1.0,1.0,1.0,55.0,2
0.796774856,0.867684529,0.99409247,0.549118054,0.868471788,0.103581305,0.368374164,0.769166112,1.21636972,0.426304673,0.633314588,1.306648247,0.56672545,0.265950642,0.273616466,0.690641064,0.246397631,-0.295449483,-0.330480412,0.367338733,797.8021978,806.2637363,770.4029304,805.4578755,739.7802198,-0.262817,0.190125,0.967773,5.85434,-5.50293,-0.964508,1.0,1.0,1.0,1.0,1.0,55.0,2
0.775547928,0.78695589,1.083485449,0.51908155,0.784557527,0.210303982,0.384291783,0.788158295,1.221838806,0.45630768,0.761618714,1.377811272,0.675239746,0.222701847,0.373701892,0.639525793,0.266886382,-0.302928773,-0.29160518,0.403797277,807.8754579,753.8827839,744.2124542,823.1868132,707.9487179,-0.244263,0.184814,0.968018,5.473022,-4.164581,-2.392578,1.0,1.0,1.0,1.0,1.0,55.0,2
1.070160164,1.109320433,1.265962767,0.862819328,0.740430811,0.182165679,0.526754248,0.778385803,1.240465975,0.460790773,0.891124737,1.391911077,0.687879421,0.28090761,0.479452454,0.717169985,0.233739058,-0.348109369,-0.252979879,0.398561057,814.3223443,770.8058608,778.8644689,801.8315018,653.956044,-0.248779,0.189758,0.964722,5.734711,-2.968292,-1.637421,1.0,1.0,1.0,1.0,1.0,55.0,2
1.220482335,1.20847324,1.365482996,1.084898233,0.76625668,0.138569938,0.768992158,0.829407274,1.141025407,0.430803698,1.236612426,1.227747801,0.760341229,0.272398499,0.557840123,0.702480847,0.185569765,-0.419876672,-0.18128518,0.385681772,811.0989011,797.8021978,794.1758242,769.1941392,594.3223443,-0.25592,0.195679,0.986877,6.22818,-2.160797,-3.663635,1.0,1.0,1.0,1.0,1.0,55.0,2
1.561134062,1.278734123,1.300544379,1.404370242,0.69779598,-0.014790662,1.010198622,0.754502332,1.126066091,0.417318481,1.249279696,1.172587026,0.682621931,0.259916107,0.579311267,0.681501249,0.084450073,-0.451862888,-0.029371592,0.283180056,830.03663,788.5347985,828.8278388,821.5750916,633.003663,-0.228882,0.195312,0.960876,0.680389,-2.325287,39.70932,1.0,1.0,1.0,1.0,1.0,45.0,2
1.621530986,1.450144877,1.404321184,1.446111664,0.827763114,0.527718536,1.119861409,0.754376267,1.154715053,0.203728797,1.220307105,0.961538685,0.651940838,0.211560386,0.648210809,0.674005797,0.089866261,-0.503469674,0.036658597,0.289781472,807.0695971,859.047619,758.7179487,784.5054945,770.4029304,-0.187378,0.22113,0.980896,2.100983,-6.325378,-21.196747,1.0,1.0,1.0,1.0,1.0,45.0,2
1.738523277,1.671825697,1.528431529,1.542226854,0.732369885,0.775489557,1.169766246,0.590129023,1.106478474,0.431951122,1.18846228,0.841254476,0.547858827,0.17097287,0.669275402,0.698197562,0.104626181,-0.511353536,0.062118841,0.261998125,782.8937729,834.8717949,1011.758242,780.4761905,621.7216117,-0.186157,-0.150696,0.983215,-36.105499,-14.781647,-7.200165,1.0,1.0,1.0,1.0,1.0,45.0,2
1.555698129,1.849934746,1.700983886,1.252026765,0.919835465,0.97412752,1.154730684,0.504477903,0.987751489,0.538580557,1.155800579,0.836021609,0.496106805,0.244676613,0.726619881,0.848414427,0.158664771,-0.535541678,0.010345486,0.309776231,751.8681319,782.8937729,801.4285714,742.1978022,650.7326007,-0.122742,-0.268005,0.959839,2.953339,-0.239258,-1.106567,1.0,1.0,1.0,1.0,1.0,45.0,2
1.555698129,1.940013749,1.782503236,1.252026765,0.919835465,1.015835667,1.167775463,0.504477903,0.987751489,0.535016508,1.039166343,0.836021609,0.496106805,0.291038228,0.638027451,0.848414427,0.158664771,-0.397689642,-0.036837969,0.309776231,790.5494505,803.4432234,790.952381,844.5421245,961.3919414,-0.129272,-0.243469,0.967712,8.187103,-3.37204,-3.125305,1.0,1.0,1.0,1.0,1.0,45.0,2
1.555698129,1.372175799,1.782503236,1.252026765,0.919835465,0.598268517,1.167775463,0.504477903,0.987751489,0.584802456,1.039166343,0.836021609,0.496106805,0.229823746,0.638027451,0.848414427,0.158664771,-0.235447908,-0.036837969,0.309776231,770.4029304,797.3992674,789.3406593,835.6776557,845.3479853,-0.147766,-0.238464,0.9729,5.114136,-2.788849,-1.398163,1.0,1.0,1.0,1.0,1.0,45.0,2
0.468111791,0.335165771,0.759983271,1.468723863,0.247690948,0.028554512,0.709749554,0.452515184,0.701115364,0.318214947,0.519749879,0.536338216,0.663579832,0.123512356,0.442189936,0.720989708,0.151048822,-0.347738834,-0.177880141,0.651306826,715.6043956,876.7765568,827.6190476,649.5238095,514.5421245,-0.151062,-0.236023,0.976562,4.732819,-3.39447,-2.512207,1.0,1.0,1.0,1.0,1.0,45.0,2
0.468111791,0.418999258,1.054096389,1.468723863,0.247690948,0.064597608,0.951457359,0.452515184,0.701115364,0.320720557,0.813445553,0.536338216,0.663579832,0.111365144,0.413946372,0.720989708,0.151048822,-0.362494522,-0.278390625,0.651306826,819.5604396,803.040293,804.6520147,771.2087912,763.956044,-0.14801,-0.232056,0.971252,5.996399,-3.715973,-2.302856,1.0,1.0,1.0,1.0,1.0,45.0,2
0.441791167,0.508932296,1.273422894,1.330790299,-0.034697103,0.069796623,0.992747704,0.503537406,0.643341875,0.189879958,0.816299064,0.482701477,0.779637348,0.106509578,0.338109508,0.736940768,0.228433173,-0.469525525,-0.348687399,0.691841499,797.8021978,794.981685,794.1758242,773.6263736,990.8058608,-0.16217,-0.235718,0.969849,6.04126,-3.237457,-2.100983,1.0,1.0,1.0,1.0,1.0,45.0,2
0.942499998,0.534003993,1.265127445,0.979203402,1.143144769,-0.031387272,0.964603754,0.835529142,0.750680899,0.188246597,0.816299064,0.851760175,0.638580444,0.053388494,0.232292451,0.831403332,0.115089568,-0.420855627,-0.378314253,0.681898396,847.7655678,763.5531136,760.7326007,841.3186813,678.5347985,-0.163208,-0.232178,0.971802,6.489868,-2.953339,-2.355194,1.0,1.0,1.0,1.0,1.0,45.0,2
0.942499998,0.439740538,1.307307227,0.979203402,1.143144769,-0.197952161,0.95473914,0.835529142,0.750680899,0.159409165,0.803367174,0.851760175,0.638580444,0.080897056,0.13573366,0.831403332,0.115089568,-0.38072393,-0.358023491,0.681898396,787.7289377,794.981685,789.3406593,741.7948718,584.6520147,-0.169189,-0.233337,0.969055,5.181427,-3.551483,-1.988831,1.0,1.0,1.0,1.0,1.0,45.0,2
0.942499998,0.439740538,0.762402801,0.979203402,1.143144769,-0.197952161,0.481787819,0.835529142,0.750680899,0.159409165,0.623344264,0.851760175,0.638580444,0.080897056,0.111752554,0.831403332,0.115089568,-0.38072393,-0.361408023,0.681898396,795.7875458,796.1904762,780.0732601,754.6886447,589.8901099,-0.164673,-0.23291,0.98761,6.026306,-3.529053,-2.220612,1.0,1.0,1.0,1.0,1.0,45.0,2
0.634703164,0.315555863,0.694855009,0.492608493,0.509937394,-0.238103182,0.657516484,0.267970929,0.603927131,0.313397807,0.679136068,0.880098096,0.6939079,-0.105061254,0.247435167,0.872656172,0.066159544,-0.500528997,-0.210912951,0.546073455,800.6227106,794.5787546,801.4285714,825.2014652,724.4688645,-0.169128,-0.227051,0.974365,5.256195,-4.351501,-2.041168,1.0,1.0,1.0,1.0,1.0,45.0,2
0.766396669,0.238681042,0.43427236,0.713698698,0.504886506,-0.073170872,0.419969127,0.215538725,0.672457637,0.443479996,0.563208939,0.892646545,0.625508802,-0.07851191,0.229813135,0.874219661,0.050679232,-0.562662811,-0.219794171,0.508794974,823.1868132,760.7326007,764.7619048,840.5128205,645.4945055,-0.170288,-0.230408,0.970825,5.951538,-3.200073,-1.749573,1.0,1.0,1.0,1.0,1.0,45.0,2
0.766396669,0.238681042,0.5203736,0.713698698,0.504886506,-0.073170872,0.527079455,0.215538725,0.672457637,0.443479996,0.649534542,0.892646545,0.625508802,-0.07851191,0.188651039,0.874219661,0.050679232,-0.562662811,-0.251094307,0.508794974,786.9230769,787.3260073,806.6666667,779.2673993,609.6336996,-0.180603,-0.227478,0.966919,5.607605,-4.194489,-2.542114,1.0,1.0,1.0,1.0,1.0,45.0,2
0.867309684,0.14520786,0.610395675,0.859501237,0.499776184,0.046078993,0.533963007,0.155895913,0.573116789,0.432272589,0.594640287,0.71183683,0.544286131,-0.053492504,0.152384149,0.87577754,0.034626667,-0.635194262,-0.370658601,0.468013595,801.4285714,795.7875458,810.2930403,798.2051282,803.8461538,-0.175598,-0.228882,0.973572,5.921631,-4.344025,-1.861725,1.0,1.0,1.0,1.0,1.0,45.0,2
0.9430621,0.736866795,0.895123634,1.164895919,0.490140884,0.578859177,0.545466925,0.500617782,0.529027105,0.734551073,1.148774329,0.829547857,0.531085121,0.263334201,0.535944495,0.650035616,0.069555802,-0.357312051,-0.457654157,0.24654083,796.1904762,801.4285714,786.5201465,823.5897436,929.1575092,-0.183472,-0.222412,0.972229,5.802002,-3.828125,-0.807495,1.0,1.0,1.0,1.0,1.0,45.0,2
0.801462354,0.548262587,0.732099734,1.010245058,0.499549681,0.384597955,0.217201299,0.476274475,1.110475206,0.7358615,1.139930367,0.840503464,0.48514363,0.220402789,0.498308983,0.637583162,-0.135638346,-0.395552158,-0.526561774,0.469924189,626.959707,881.2087912,892.8937729,667.6556777,838.4981685,-0.177612,-0.211975,0.97229,5.682373,-3.633728,-1.226196,1.0,1.0,1.0,1.0,1.0,45.0,2
0.801462354,0.561450574,0.752461126,1.010245058,0.499549681,0.358523332,0.219419416,0.476274475,1.110475206,0.7358615,1.145884835,0.840503464,0.48514363,0.220315211,0.480374731,0.637583162,-0.135638346,-0.389586335,-0.531768147,0.469924189,805.0549451,806.6666667,788.9377289,730.1098901,660.8058608,-0.189087,-0.21637,0.971008,5.435638,-3.401947,-2.041168,1.0,1.0,1.0,1.0,1.0,45.0,2
0.51514264,0.328810357,0.646956985,0.828341197,0.375215346,0.011034954,0.174127195,0.455767035,0.771213334,0.579182985,0.755216452,0.596723731,0.354439929,0.180894233,0.27407807,0.627357562,-0.128672488,-0.418444012,-0.589350869,0.591054818,798.2051282,799.010989,788.9377289,793.3699634,670.0732601,-0.193542,-0.219849,0.970154,5.487976,-3.917847,-1.734619,1.0,1.0,1.0,1.0,1.0,45.0,2
0.534973061,0.460144781,0.649951211,0.846446429,0.349599395,0.054963621,0.185458286,0.42962118,0.712428166,0.205586247,0.605558152,0.511094833,0.351488514,0.025165428,0.142055779,0.661559998,-0.09701905,-0.528567882,-0.610454285,0.604196094,747.032967,816.7399267,803.8461538,755.4945055,921.9047619,-0.193542,-0.216858,0.967346,6.026306,-3.312225,-1.637421,1.0,1.0,1.0,1.0,1.0,45.0,2
0.800172123,0.429216516,0.562089109,0.846446429,0.478176574,0.122551849,0.190742651,0.42962118,1.029805116,-0.030625291,0.418430227,0.511094833,0.519773398,-0.009090677,0.116350062,0.661559998,-0.164109997,-0.57762875,-0.605589382,0.604196094,789.3406593,789.7435897,794.5787546,816.3369963,816.7399267,-0.198608,-0.213928,0.965637,6.332855,-3.753357,-1.906586,1.0,1.0,1.0,1.0,1.0,55.0,2
0.800172123,0.429216516,0.562089109,0.846446429,0.478176574,0.122551849,0.190742651,0.42962118,1.029805116,-0.030625291,0.418430227,0.511094833,0.519773398,-0.009090677,0.116350062,0.661559998,-0.164109997,-0.57762875,-0.605589382,0.604196094,829.6336996,795.3846154,788.1318681,771.6117216,678.5347985,-0.198608,-0.211426,0.967285,5.764618,-4.089813,-2.205658,1.0,1.0,1.0,1.0,1.0,55.0,2
1.266857735,0.480683688,0.41938902,1.237620285,0.755511008,0.078785262,0.028447338,0.443837904,1.22690304,0.303951571,0.521432146,0.953791945,0.666953314,0.100021371,0.03400868,0.887711775,0.14255341,-0.451009655,-0.492827973,0.485182187,820.3663004,795.7875458,795.7875458,772.014652,668.4615385,-0.190369,-0.219666,0.955872,12.276917,-6.557159,2.160797,1.0,1.0,1.0,1.0,1.0,55.0,2
1.529504023,0.539539264,0.802520773,1.484763496,1.091418575,0.379527214,0.371897515,0.950666849,1.143972259,0.492376414,0.643018244,0.971507475,0.683637017,0.08821228,-0.037161141,0.797451872,0.187743647,-0.399302657,-0.320677609,0.515308694,765.970696,790.1465201,794.981685,817.5457875,788.9377289,-0.215393,-0.122314,0.976501,2.572021,-3.633728,-5.592651,1.0,1.0,1.0,1.0,1.0,55.0,2
1.570995834,0.283449493,1.380224914,1.646400823,0.748999847,0.063644649,1.11926917,0.789851746,1.288100844,0.395821187,1.159336843,0.705178307,0.945744313,0.184585144,0.312192526,0.626731562,0.084752165,-0.420906457,-0.46335678,-0.019776164,789.3406593,799.4139194,790.5494505,777.6556777,809.0842491,-0.319641,0.102539,0.951538,5.697327,-4.770203,-1.742096,1.0,1.0,1.0,1.0,1.0,55.0,2
1.19121083,0.346164901,1.303876209,1.3976361,1.273100986,0.211194632,1.018074783,0.488353186,1.145521383,0.506519431,1.159336843,1.03119086,0.784977595,0.235129349,0.226464112,0.698393164,-0.152862974,-0.475951358,-0.477886084,-0.043691873,787.7289377,800.6227106,796.5934066,802.2344322,869.5238095,-0.32135,0.106201,0.951355,5.50293,-4.344025,-2.362671,1.0,1.0,1.0,1.0,1.0,55.0,2
1.154992272,0.360597861,0.708908155,1.277736702,1.148042679,0.282370696,0.247977761,0.616318953,1.149853332,0.511514177,0.549714377,1.039375977,0.726482602,0.221134587,0.182719066,0.697200142,-0.136488299,-0.503673068,-0.53278436,0.048454742,788.9377289,809.0842491,785.7142857,756.3003663,693.4432234,-0.33197,0.099182,0.957703,6.22818,-4.396362,-2.467346,1.0,1.0,1.0,1.0,1.0,55.0,2
1.173530764,0.568115076,0.691473434,1.07138719,1.121014334,0.403823621,0.157613979,0.692867432,1.173276719,0.447322463,0.495556187,1.160269179,0.795390778,0.190670355,0.253139329,0.771640522,-0.119053283,-0.480906983,-0.558726724,0.096430466,799.010989,796.996337,789.3406593,784.5054945,691.4285714,-0.325195,0.102112,0.954102,5.749664,-3.035583,-1.600037,1.0,1.0,1.0,1.0,1.0,60.0,2
1.112615368,0.698557822,0.711264391,1.082550795,0.94668982,0.35385123,0.080857016,0.720174205,1.166259953,0.367397101,0.530906821,1.123233755,0.770325264,0.176844478,0.336238982,0.803569017,-0.163631906,-0.432720592,-0.538715118,0.165826164,790.952381,796.996337,796.996337,798.6080586,922.7106227,-0.317871,0.106384,0.950378,6.078644,-3.626251,-1.719666,1.0,1.0,1.0,1.0,1.0,60.0,2
1.058942378,0.660080574,0.465388209,1.106066797,0.951395028,0.221311699,0.097828372,0.647650383,1.19921795,0.176582295,0.497354203,1.098394269,0.848768779,0.125560534,0.296688811,0.743753355,-0.102934873,-0.420787071,-0.534041655,0.164569752,745.018315,811.0989011,790.5494505,759.9267399,722.4542125,-0.313232,0.10498,0.951599,5.555267,-3.312225,-2.033691,1.0,1.0,1.0,1.0,1.0,60.0,2
1.046278117,0.568361893,0.25590321,1.113784934,1.021239031,0.006327807,0.278270078,0.605706653,1.196561729,0.195296594,0.630724346,1.073995402,0.836431678,0.100983252,0.257564611,0.658182959,-0.089695942,-0.45227547,-0.462854479,0.16362885,779.2673993,799.010989,792.5641026,757.5091575,634.2124542,-0.3255,0.104919,0.961609,6.302948,-4.927216,-2.355194,1.0,1.0,1.0,1.0,1.0,60.0,2
0.890992431,0.260626939,0.240968687,1.109864132,0.835245346,-0.106403997,0.372039495,0.529234673,1.032271422,0.187180738,0.50468829,0.748662473,0.880688596,-0.002110914,0.18501381,0.427136391,0.03434029,-0.511485529,-0.463025966,0.151948059,789.3406593,794.1758242,798.6080586,777.2527473,711.978022,-0.317261,0.109009,0.963562,6.108551,-2.444916,-1.121521,1.0,1.0,1.0,1.0,1.0,60.0,2
0.621995108,0.634346051,0.665812247,1.172758009,0.555334325,0.288441445,0.47028133,0.7653394,0.477004726,0.316917006,0.660697349,0.674948038,0.361699136,-0.088986337,0.004550367,0.49761146,-0.027775721,-0.45131828,-0.224175566,0.118316461,774.029304,795.7875458,788.1318681,786.1172161,744.6153846,-0.311584,0.116089,0.955627,5.816956,-4.575806,-1.211243,1.0,1.0,1.0,1.0,1.0,60.0,2
0.707712623,0.553966158,0.805199517,1.027622917,0.695769437,0.184390057,0.385829392,0.851343107,0.652739392,0.328029271,0.474069363,0.770024202,0.459836889,-0.151723431,-0.010902524,0.391916937,-0.008219879,-0.434130899,-0.206114777,0.151395205,775.2380952,793.3699634,797.8021978,782.8937729,701.0989011,-0.314331,0.109436,0.962036,5.158997,-3.985138,-2.175751,1.0,1.0,1.0,1.0,1.0,60.0,2
0.658766085,0.468894312,0.643604593,0.955920765,0.630257798,0.08227848,0.285415653,0.756215256,0.722721106,0.407288249,0.478510783,0.800065536,0.551465284,-0.132159085,0.050581671,0.489782987,0.031118593,-0.419020391,-0.160579693,0.186563329,770.8058608,788.1318681,794.1758242,758.3150183,593.9194139,-0.318054,0.113892,0.957642,5.966492,-4.979553,-2.661743,1.0,1.0,1.0,1.0,1.0,60.0,2
0.748751885,0.357154355,0.651406684,1.042499369,0.63689179,-0.042917166,0.280226695,0.665561196,0.8244612,0.555442932,0.537450228,0.807859502,0.573918197,-0.130286283,0.086342858,0.464096111,0.016771837,-0.42549312,-0.215644006,0.125342187,792.5641026,798.2051282,800.2197802,805.4578755,836.8864469,-0.312195,0.114624,0.958679,5.734711,-3.357086,-1.502838,1.0,1.0,1.0,1.0,1.0,60.0,2
0.822403038,0.487022299,0.742925778,0.992195775,0.602411018,0.14213243,0.440285188,0.442048773,1.095573148,0.681073985,0.716213353,1.20116084,0.602995515,-0.041739156,0.130065402,0.531677122,-0.002983102,-0.37871683,-0.293280399,0.062971735,779.6703297,812.3076923,792.1611722,794.981685,718.8278388,-0.305481,0.10907,0.956604,5.592651,-4.149628,-2.15332,1.0,1.0,1.0,1.0,1.0,60.0,2
1.143055506,0.64633167,0.817370155,1.255560946,0.666026425,0.202840155,0.519706175,0.825076637,1.216823067,0.709052826,0.739987935,1.372628142,0.632528454,0.097585381,0.102006328,0.555044595,-0.107703719,-0.426271472,-0.486103544,-0.03351368,802.6373626,788.5347985,780.4761905,784.1025641,718.4249084,-0.307434,0.11615,0.963806,5.420685,-3.895416,-2.811279,1.0,1.0,1.0,1.0,1.0,60.0,2
1.250152088,0.930059059,0.813457904,1.289167067,0.749510285,0.591871571,0.542411543,0.973700108,1.221956348,0.909629988,0.701766997,1.372628142,0.671781729,0.389651572,0.08403732,0.612925744,-0.136668224,-0.278939439,-0.460145968,0.03999552,794.5787546,794.1758242,791.7582418,809.4871795,718.021978,-0.309998,0.113586,0.966614,4.912262,-4.164581,-2.803802,1.0,1.0,1.0,1.0,1.0,60.0,2
1.337527901,1.000735431,0.567517001,1.405531395,0.739839912,0.677184056,0.319642273,1.098002567,1.118739859,0.905049403,0.635616471,1.307756024,0.695945506,0.496603029,0.034383666,0.618082529,-0.210634382,-0.26704385,-0.492081668,0.0593227,798.6080586,796.996337,799.4139194,792.967033,875.1648352,-0.299683,0.116028,0.960999,5.585175,-2.743988,-1.323395,1.0,1.0,1.0,1.0,1.0,60.0,2
1.330449608,1.102614448,0.570558155,1.429655225,0.883342983,0.870797757,0.261050364,1.065666375,0.979627451,0.891821037,0.522129904,1.20577453,0.66125258,0.624708269,-0.079572712,0.596551807,-0.277018498,-0.067233526,-0.406156131,0.048950564,754.6886447,800.6227106,791.3553114,783.6996337,642.6739927,-0.296204,0.114197,0.962585,6.101074,-4.396362,-2.31781,1.0,1.0,1.0,1.0,1.0,60.0,2
1.013920872,0.42757572,0.434631154,1.067345086,0.936777526,0.415153589,0.255087673,0.745650521,0.840781237,0.259972203,0.230586037,0.695351468,0.409066936,0.349227724,-0.203664295,0.698492135,-0.260306525,-0.069653731,-0.25756411,0.071523322,771.2087912,796.5934066,797.3992674,776.8498168,766.3736264,-0.294556,0.110413,0.96521,5.719757,-4.650574,-2.706604,1.0,1.0,1.0,1.0,1.0,60.0,2
1.053928122,0.641423802,0.477763493,0.968303714,0.871331708,0.537440011,0.33661064,0.742503206,0.85620346,0.424776493,0.563943229,0.734992562,0.545352401,0.338689113,0.041778905,0.754069129,-0.08578443,-0.152336377,-0.331118927,0.072320991,786.9230769,795.7875458,798.2051282,802.6373626,648.3150183,-0.29187,0.114746,0.966125,5.031891,-4.224396,-1.80191,1.0,1.0,1.0,1.0,1.0,60.0,2
0.974426387,0.646765061,0.415200358,0.869273998,0.773975108,0.45057585,0.262535434,0.707838533,0.956305512,0.423494408,0.555524961,0.780141733,0.615649558,0.313222965,0.096371405,0.704991956,-0.074134189,-0.223985178,-0.314680488,0.023440551,715.6043956,854.2124542,829.6336996,725.6776557,698.6813187,-0.262451,0.112061,0.983276,6.332855,-7.723541,0.411224,1.0,1.0,1.0,1.0,1.0,60.0,2
0.948562463,0.712894101,1.038575728,0.847701866,0.650580623,0.403845434,0.881288303,0.728987152,0.855272893,0.413808787,1.038284691,0.75130426,0.711154907,0.248375275,0.129832931,0.689133028,0.000745083,-0.392110273,-0.388764382,-0.025559906,800.2197802,777.2527473,778.8644689,789.7435897,684.1758242,-0.247803,0.135315,0.973022,5.996399,-2.915955,-2.467346,1.0,1.0,1.0,1.0,1.0,60.0,2
0.767460136,0.583083559,1.424829892,0.87765426,0.506907822,-0.104193791,1.19119989,0.720727219,0.811841306,0.305713135,1.089204831,0.639927281,0.74481726,0.174022048,0.080105326,0.550134351,-0.055068492,-0.483153982,-0.336422803,-0.129565051,806.2637363,778.0586081,774.8351648,768.7912088,703.9194139,-0.253967,0.136292,0.973694,6.213226,-4.530945,-0.844879,1.0,1.0,1.0,1.0,1.0,60.0,2
1.014207618,0.34623749,1.457001647,0.989710461,0.986406476,-0.202941386,1.193657103,0.754123023,0.859625124,0.28877048,1.089204831,0.618153693,0.616071939,0.051393803,0.097368312,0.453862675,-0.016752335,-0.329981008,-0.339265195,-0.265976524,798.2051282,789.3406593,800.2197802,803.8461538,803.040293,-0.249512,0.132141,0.973145,5.226288,-3.820648,-2.355194,1.0,1.0,1.0,1.0,1.0,60.0,2
0.930808749,0.643363433,1.347499607,0.989710461,0.919893983,-0.019165606,1.01256046,0.754123023,0.847877282,0.56677211,1.081338295,0.618153693,0.601003346,0.158282755,0.202702911,0.453862675,-0.130201709,-0.317390587,-0.334978486,-0.265976524,816.7399267,767.5824176,779.6703297,844.5421245,815.5311355,-0.246277,0.137878,0.977478,5.809479,-4.007568,-1.772003,1.0,1.0,1.0,1.0,1.0,60.0,2
0.930808749,0.643363433,0.82094458,0.989710461,0.919893983,-0.019165606,0.118123134,0.754123023,0.847877282,0.56677211,0.278318796,0.618153693,0.601003346,0.158282755,0.241192128,0.453862675,-0.130201709,-0.317390587,-0.356680834,-0.265976524,770.8058608,837.6923077,822.7838828,772.014652,741.7948718,-0.217224,0.144897,0.980347,3.005676,-1.988831,3.514099,1.0,1.0,1.0,1.0,1.0,55.0,2
0.795028479,0.835168455,0.673781404,1.562319107,0.643289726,0.134977387,0.021865371,0.6733689,0.857556477,0.56677211,0.194962175,0.706581483,0.728472773,0.240808031,0.316999382,0.666189572,-0.10401332,-0.364541678,-0.423760848,0.259775972,770.0,784.9084249,803.4432234,781.6849817,701.0989011,-0.245667,0.128357,0.977356,5.271149,-3.753357,0.957031,1.0,1.0,1.0,1.0,1.0,55.0,2
0.828261468,1.177604287,1.21940266,0.748766269,0.74995385,0.167882003,0.478129423,0.768780884,0.733503199,0.475021472,0.631406311,1.226029563,0.842272348,0.761967811,0.607461538,0.777746849,0.162770399,0.473261194,0.315600798,0.212831112,805.8608059,803.040293,794.981685,800.2197802,803.4432234,-0.252625,0.128601,0.976562,5.719757,-3.596344,-2.310333,1.0,1.0,1.0,1.0,1.0,55.0,2
0.926734159,0.986289339,1.028140673,0.766651446,0.767004649,0.290932397,0.282708731,0.722374608,0.74111881,0.543039742,0.638722925,1.226029563,0.773609238,0.631838423,0.501652535,0.73299811,0.144712746,0.321229683,0.14313095,0.134672863,780.0732601,802.2344322,792.5641026,767.5824176,601.978022,-0.246155,0.131653,0.972168,6.452484,-3.775787,-2.557068,1.0,1.0,1.0,1.0,1.0,55.0,2
1.146296077,0.907204471,0.955263882,1.042783741,0.800271715,0.217942013,0.442347664,0.673680401,1.079029776,0.579678242,0.670672301,1.231327124,0.691714799,0.517589323,0.420984449,0.66417416,0.091359167,0.227146706,0.045616633,0.125734593,786.9230769,785.7142857,788.9377289,767.1794872,680.5494505,-0.243469,0.134155,0.97168,5.936584,-3.573914,-2.257996,1.0,1.0,1.0,1.0,1.0,55.0,2
1.239187313,0.656342802,0.832444546,1.011166627,0.756700218,0.209521792,0.475258051,0.564474307,1.076239987,0.588530012,0.745527936,1.187461773,0.601556918,0.474065838,0.327813049,0.575799116,-0.020374487,0.311184762,-0.166363986,0.124309583,799.8168498,805.8608059,792.1611722,791.7582418,743.003663,-0.236084,0.132629,0.97406,5.099182,-4.942169,-2.729034,1.0,1.0,1.0,1.0,1.0,55.0,2
1.318592945,0.591074826,0.90846263,1.019282119,0.837168098,0.082172924,0.602264364,0.488906644,1.13604934,0.49003947,0.743413625,0.705222344,0.558477945,0.384395913,0.255818823,0.507221284,-0.129275155,0.293084046,-0.15438214,0.181657812,799.8168498,778.4615385,786.9230769,820.3663004,755.8974359,-0.234924,0.132141,0.981506,5.936584,-3.783264,-1.809387,1.0,1.0,1.0,1.0,1.0,55.0,2
1.357228677,0.771039497,1.213380645,0.983519198,0.799273473,0.141502948,0.746965147,0.663544323,1.198212629,0.621439878,0.79613083,0.863207731,0.576246462,0.367832147,0.286153759,0.588344222,-0.091109312,0.256020904,-0.183003165,0.196820463,786.5201465,784.5054945,771.6117216,779.2673993,750.2564103,-0.225159,0.128235,0.977051,5.794525,-4.478607,-2.392578,1.0,1.0,1.0,1.0,1.0,55.0,2
1.510850664,0.894020468,1.501628027,1.145853107,0.859468146,0.310227797,0.930154774,0.715772279,1.159906432,0.604112518,0.85328485,0.848469887,0.511726913,0.238337319,0.379134988,0.663301425,-0.031015004,-0.116542458,-0.235371579,0.172191011,778.4615385,765.970696,754.6886447,759.5238095,666.8498168,-0.232483,0.13147,0.980408,5.585175,-3.9328,-2.512207,1.0,1.0,1.0,1.0,1.0,55.0,2
1.613477683,1.023489376,1.68115342,1.281907795,0.718076797,0.405665668,1.080019673,0.814878277,1.098930255,0.604112518,0.82403735,0.848469887,0.473506196,0.266898813,0.487821177,0.7329626,0.036947421,-0.212431981,-0.311724992,0.174003516,792.967033,815.5311355,815.9340659,800.2197802,749.8534799,-0.234314,0.129517,0.979431,5.794525,-4.695435,-1.390686,1.0,1.0,1.0,1.0,1.0,55.0,2
1.752153516,1.385662213,1.758751793,1.362891315,0.719446772,0.618275821,1.016309786,0.713964372,0.994368463,0.507183673,0.924472246,0.845997846,0.401029993,0.338352118,0.630611964,0.783718976,0.018352438,-0.121842602,-0.262761193,0.162001361,768.7912088,801.4285714,788.9377289,768.3882784,644.2857143,-0.22937,0.133484,0.976746,5.914154,-4.486084,-1.996307,1.0,1.0,1.0,1.0,1.0,55.0,2
1.752153516,1.5340712,1.10114574,1.066017492,0.719446772,0.611130706,-0.087403521,0.441477206,0.994368463,0.395389536,0.671541053,0.832637201,0.401029993,0.275802149,0.395739455,0.808388985,0.018352438,-0.00145024,-0.197277161,0.176203287,792.967033,724.4688645,831.6483516,781.2820513,793.7728938,-0.226501,0.1297,0.972656,6.093597,-3.701019,-2.953339,1.0,1.0,1.0,1.0,1.0,55.0,2
1.752153516,1.5340712,1.10114574,1.066017492,0.719446772,0.611130706,-0.087403521,0.441477206,0.994368463,0.395389536,0.671541053,0.832637201,0.401029993,0.275802149,0.395739455,0.808388985,0.018352438,-0.00145024,-0.197277161,0.176203287,788.9377289,795.7875458,842.5274725,803.8461538,703.9194139,-0.229553,0.127563,0.970642,5.323486,-3.304749,-2.684174,1.0,1.0,1.0,1.0,1.0,55.0,2
1.048827657,1.489578281,0.994671449,1.191332671,0.551193792,0.617037944,0.340302049,1.023626663,0.930451763,0.288179525,0.828661311,1.201506401,0.610927562,0.279598638,0.388836761,0.947546211,0.024706167,0.009383253,-0.167774244,0.172884733,784.1025641,803.040293,790.5494505,786.1172161,690.6227106,-0.236084,0.135193,0.978882,6.138458,-4.291687,-1.652374,1.0,1.0,1.0,1.0,1.0,55.0,2
0.69977088,1.489578281,0.904991674,1.043913021,0.476907513,0.617037944,0.610739109,1.079283037,0.788357508,0.288179525,0.781436679,1.170848663,0.489751523,0.279598638,0.372800303,0.885944083,0.006705293,0.009383253,-0.359921751,-0.000495712,790.952381,784.1025641,792.5641026,771.6117216,682.5641026,-0.238342,0.136475,0.97467,5.644989,-4.127197,-1.951447,1.0,1.0,1.0,1.0,1.0,55.0,2
0.738696879,1.05858296,0.787266853,0.964756862,0.471876927,0.664817144,0.433643826,0.87164878,0.793150093,0.723148733,0.781436679,1.250453644,0.481403882,0.420438868,0.22909387,0.761700974,-0.097679686,0.056430177,-0.331017212,0.12336189,788.5347985,787.3260073,791.7582418,776.043956,693.8461538,-0.232361,0.131714,0.97583,6.011353,-3.671112,-2.811279,1.0,1.0,1.0,1.0,1.0,55.0,2
1.030767066,0.963569653,0.720173248,0.914435467,0.609341856,0.525781373,0.351542314,0.828082288,1.089603809,0.796166124,0.785474374,1.245039657,0.527277388,0.332394315,0.233848313,0.701233832,-0.084516473,0.009623289,-0.327581506,0.116318082,843.7362637,746.6300366,757.1062271,840.5128205,741.3919414,-0.23291,0.129333,0.976501,6.385193,-2.676697,-2.534637,1.0,1.0,1.0,1.0,1.0,55.0,2
1.207352921,0.804622178,0.616908278,0.926600651,0.705610018,0.337019643,0.14234503,0.744686801,1.089603809,0.764043655,0.385778203,1.182094609,0.545307533,0.252302353,0.160341778,0.631983822,-0.042045588,-0.1118033,-0.296954221,0.195809033,799.8168498,807.4725275,793.7728938,801.4285714,907.8021978,-0.22699,0.131592,0.979004,5.405731,-4.336548,-1.884155,1.0,1.0,1.0,1.0,1.0,55.0,2
1.397984588,0.74798409,0.538333729,0.960949205,0.846037022,0.123787193,0.143945872,0.961538076,1.089603809,0.558002793,0.515945499,1.002710455,0.623693786,0.138854494,0.280670604,0.689405985,0.087181426,-0.077665174,-0.345714098,0.113220551,770.8058608,801.4285714,824.7985348,767.985348,719.2307692,-0.227051,0.131409,0.983459,5.764618,-3.820648,-2.041168,1.0,1.0,1.0,1.0,1.0,55.0,2
1.378154378,0.621230533,0.618313365,0.975849089,0.841560698,0.175143557,0.314855347,0.945731019,1.104310838,0.648136271,0.534286919,1.049313272,0.687782633,0.018928861,0.407975391,0.729632955,0.045048381,-0.129683282,-0.486341379,0.085569143,789.3406593,798.6080586,786.1172161,771.6117216,638.6446886,-0.22406,0.130127,0.980164,5.622559,-3.491669,-2.145844,1.0,1.0,1.0,1.0,1.0,55.0,2
1.378154378,0.621230533,0.618313365,0.975849089,0.841560698,0.175143557,0.314855347,0.945731019,1.104310838,0.648136271,0.534286919,1.049313272,0.687782633,0.018928861,0.407975391,0.729632955,0.045048381,-0.129683282,-0.486341379,0.085569143,776.8498168,802.2344322,796.1904762,789.7435897,767.5824176,-0.230896,0.135132,0.991821,6.22818,-4.022522,-1.973877,1.0,1.0,1.0,1.0,1.0,60.0,2
0.985965445,0.280279593,1.522986529,1.09954423,0.257641151,0.073232542,0.928498623,0.770808249,0.637793071,0.349531969,0.711082393,0.796343426,0.89025178,0.241860086,0.531264368,0.782756718,0.159283094,-0.252563502,-0.223594654,-0.005946941,763.1501832,803.8461538,790.5494505,780.8791209,779.6703297,-0.225952,0.130737,0.983398,5.667419,-3.544006,-1.77948,1.0,1.0,1.0,1.0,1.0,60.0,2
0.973703316,0.153928657,1.751249926,1.215577461,0.642799608,0.15499364,1.012466535,0.902084401,1.018756652,0.380454354,0.989094207,0.80847367,0.730730927,0.278520037,0.563664543,0.705419484,0.132979692,-0.305911873,-0.22025945,-0.036443936,792.967033,788.9377289,790.1465201,766.3736264,581.8315018,-0.224365,0.134705,0.982056,6.168365,-4.299164,-1.704712,1.0,1.0,1.0,1.0,1.0,60.0,2
0.923074489,0.084924939,1.667378625,1.140045472,0.584187831,0.173416758,1.062701509,0.798391163,1.170596219,0.555284634,1.204349791,0.961706932,0.657941949,0.268447677,0.605553923,0.633262692,0.041592061,-0.23299636,-0.071209518,0.002483495,779.2673993,788.9377289,810.2930403,758.3150183,728.0952381,-0.232544,0.136597,0.987366,5.734711,-3.102875,-1.958923,1.0,1.0,1.0,1.0,1.0,60.0,2
0.902892447,0.288130607,1.65092822,1.128268344,0.605854736,0.149863525,1.117084426,0.715284168,1.275104929,0.618558987,1.285880382,0.937770864,0.561534825,0.259379171,0.666914318,0.564225098,-0.076629569,-0.253574045,0.043172398,0.034583615,833.6630037,748.6446886,754.6886447,845.3479853,990.0,-0.230713,0.133911,0.983887,5.652466,-2.549591,-2.190704,1.0,1.0,1.0,1.0,1.0,60.0,2
0.871987922,0.384960204,1.55902181,1.031589695,0.415494629,0.137377007,1.197922993,0.506173911,1.257732262,0.617824628,1.285880382,0.934550917,0.569519772,0.26110563,0.730711987,0.490757837,-0.183548641,-0.233593028,0.172037323,0.071587402,770.8058608,782.8937729,803.8461538,768.7912088,596.3369963,-0.223511,0.136414,0.976624,6.071167,-5.263672,-1.457977,1.0,1.0,1.0,1.0,1.0,60.0,2
0.862852502,0.665058429,1.495516476,1.122250253,0.296219236,0.150034399,1.100379733,0.676798176,1.251281361,0.56294555,1.282292111,0.940613376,0.634817599,0.350702095,0.715611178,0.572156134,-0.188812827,-0.22163365,0.249701279,0.031154403,797.3992674,788.5347985,777.2527473,787.3260073,653.956044,-0.228699,0.141907,0.980591,5.831909,-3.850555,-2.355194,1.0,1.0,1.0,1.0,1.0,60.0,2
1.221652497,0.710979013,1.014824727,1.170063894,1.08159544,0.120158111,0.450916442,1.027597622,1.11217054,0.336771067,0.375217114,0.977111437,0.617530937,0.389441218,0.319736507,0.616237723,-0.01502699,0.027073336,0.069556027,-0.225444633,723.2600733,894.1025641,834.4688645,716.4102564,793.7728938,-0.228333,0.139282,0.980835,5.166473,-3.04306,-1.667328,1.0,1.0,1.0,1.0,1.0,60.0,2
1.284664011,0.748265339,0.977724726,1.255303859,1.020847264,0.130755837,0.489423473,0.971273864,1.139289527,0.388512341,0.486748621,0.983039101,0.616268882,0.398862895,0.312600929,0.644937646,-0.014818878,0.018991418,0.057538489,-0.190248884,775.6410256,770.4029304,832.4542125,785.7142857,825.2014652,-0.240051,0.130859,0.969116,4.740295,-4.11972,0.553284,1.0,1.0,1.0,1.0,1.0,60.0,2
1.284664011,0.746892702,0.969344139,1.269478221,1.020847264,0.036946607,0.52960822,0.953725107,1.139289527,0.299477116,0.464686931,0.907364098,0.616268882,0.354504603,0.220466798,0.624189654,-0.014818878,-0.010942529,-0.019682883,-0.181861285,718.8278388,443.6263736,951.3186813,743.4065934,828.8278388,-0.236389,0.140625,0.97644,6.332855,-2.198181,-2.968292,1.0,1.0,1.0,1.0,1.0,60.0,2
1.306830513,0.738665705,0.953005605,1.318977641,0.90538782,0.009002767,0.550468648,0.890131108,1.05570833,0.229634379,0.439251402,0.774554375,0.610824814,0.35091361,0.197559272,0.620930223,-0.074896782,-0.010685062,-0.05137607,-0.162006833,763.1501832,745.4212454,825.2014652,749.047619,643.8827839,-0.24176,0.150024,0.987976,5.929108,-2.542114,-1.308441,1.0,1.0,4.0,1.0,1.0,60.0,2
1.306830513,0.738665705,0.953005605,1.318977641,0.90538782,0.009002767,0.550468648,0.890131108,1.05570833,0.229634379,0.439251402,0.774554375,0.610824814,0.35091361,0.197559272,0.620930223,-0.074896782,-0.010685062,-0.05137607,-0.162006833,790.1465201,932.7838828,803.4432234,801.025641,633.8095238,-0.245605,0.155884,0.97229,5.076752,-3.678589,-1.525269,1.0,1.0,4.0,1.0,1.0,60.0,2
1.306830513,0.738665705,0.953005605,1.318977641,0.90538782,0.009002767,0.550468648,0.890131108,1.05570833,0.229634379,0.439251402,0.774554375,0.610824814,0.35091361,0.197559272,0.620930223,-0.074896782,-0.010685062,-0.05137607,-0.162006833,777.6556777,716.007326,791.3553114,798.2051282,880.8058608,-0.250427,0.155151,0.971191,6.489868,-3.102875,-0.53833,1.0,1.0,1.0,1.0,1.0,60.0,2
0.909584437,0.738665705,0.953005605,1.175871235,0.720514937,0.009002767,0.550468648,0.399700004,1.154876035,0.229634379,0.439251402,1.019642505,0.85143792,0.35091361,0.197559272,0.585949762,0.015046441,-0.010685062,-0.05137607,0.043762976,777.2527473,696.2637363,784.9084249,776.4468864,670.0732601,-0.250854,0.137329,0.975037,4.598236,-4.919739,-3.125305,1.0,1.0,1.0,1.0,1.0,60.0,2
0.997887704,0.738665705,1.408837329,1.131923114,0.710205215,0.009002767,1.181857139,0.439513087,1.218597416,0.229634379,0.972891353,1.043712396,0.818111104,0.35091361,0.87586062,0.620538767,0.058925463,-0.010685062,-0.054085063,0.012804719,770.8058608,803.4432234,792.1611722,759.9267399,597.1428571,-0.248779,0.145508,0.974365,6.459961,-2.893524,-1.218719,1.0,1.0,1.0,1.0,1.0,60.0,2
0.932025092,0.738665705,1.410258814,1.012864464,0.595408726,0.009002767,1.111722322,0.380192726,1.171933715,0.229634379,1.033412094,1.06812418,0.753491398,0.35091361,0.815880728,0.545699298,-0.008235073,-0.010685062,0.038905123,0.03715045,788.5347985,794.5787546,766.3736264,775.6410256,792.1611722,-0.245422,0.144104,0.982849,5.428162,-3.424377,-2.033691,1.0,1.0,1.0,1.0,1.0,60.0,2
0.9077698,1.544506851,1.627058798,0.827003665,0.6889257,1.042142456,1.137391241,0.551321451,1.144395161,0.901994777,1.189117592,1.120096523,0.651345586,0.104314275,0.81940043,0.523355766,0.007230529,0.108500779,0.195028624,0.053215273,817.1428571,779.6703297,784.9084249,770.4029304,650.3296703,-0.247192,0.148743,0.974182,5.839386,-3.715973,-1.712189,1.0,1.0,1.0,1.0,1.0,60.0,2
0.984207773,1.608141682,1.568929474,0.659344086,0.893157155,1.168368268,1.04496983,0.624588685,0.91387323,0.940403098,1.189117592,1.20524702,0.682618919,0.228338352,0.73852632,0.468793606,-0.064743117,-0.082958755,0.13036553,0.039157491,788.5347985,818.3516484,789.3406593,779.6703297,537.5091575,-0.251099,0.142334,0.972961,5.375824,-4.059906,-2.160797,1.0,1.0,1.0,1.0,1.0,60.0,2
0.993438618,1.637008518,1.568074766,0.707955632,0.88086697,1.091238346,1.10551703,0.724187955,0.817795985,0.954393201,1.134708544,1.208411799,0.676324479,0.278117031,0.74357628,0.555393786,-0.044695848,-0.119897806,0.10166157,0.066549006,790.952381,819.5604396,797.3992674,785.7142857,913.040293,-0.260071,0.148499,0.966309,5.719757,-3.080444,-1.996307,1.0,1.0,1.0,1.0,1.0,60.0,2
1.144520023,1.683700353,1.173590289,0.710413446,0.78246909,1.03709705,0.986561783,0.783212525,0.763195563,0.845300511,0.724098218,1.208101929,0.772212548,0.35045535,0.554669216,0.721885109,-0.039394246,-0.275217702,-0.146170537,0.002083267,768.3882784,818.3516484,797.8021978,785.3113553,815.1282051,-0.253052,0.135925,0.967224,6.168365,-3.753357,-2.355194,1.0,1.0,1.0,1.0,1.0,60.0,2
1.092315349,1.668328726,1.273832155,0.818973799,0.502859858,0.853685517,1.174847764,0.677175676,0.920243521,0.6816262,0.799716999,1.136573888,0.681743441,0.373979935,0.686223183,0.71357296,-0.003895822,-0.241400476,-0.068374709,0.072709982,750.6593407,799.8168498,776.4468864,787.3260073,576.996337,-0.281494,0.182861,0.91626,12.568512,-0.837402,5.577698,1.0,1.0,1.0,1.0,1.0,60.0,2
1.397729191,1.654308338,1.273832155,1.291995839,0.658206858,0.806505497,1.174847764,0.706739623,1.035338393,0.660388898,0.799716999,1.145510039,0.680193305,0.388832134,0.686223183,0.764190984,0.120490461,-0.283729129,-0.068374709,0.096529402,661.6117216,826.8131868,855.4212454,696.2637363,639.047619,-0.34967,0.307739,0.941833,7.932892,-5.532837,1.181335,1.0,1.0,1.0,1.0,1.0,60.0,2
1.442849697,1.588382742,1.273832155,1.400176631,0.753633567,0.675517237,1.174847764,0.53708226,0.998620287,0.584487843,0.799716999,0.696765021,0.596145152,0.386308016,0.686223183,0.655549881,0.161512378,-0.256720836,-0.068374709,0.146081346,829.2307692,740.1831502,784.9084249,848.974359,774.4322344,-0.344727,0.209961,0.934753,1.94397,-3.521576,5.106659,1.0,1.0,1.0,1.0,1.0,60.0,2
1.615620535,1.588382742,1.273832155,1.610826278,0.839032773,0.675517237,1.174847764,0.712940634,0.984388284,0.584487843,0.799716999,0.581697273,0.621454925,0.386308016,0.686223183,0.748323184,0.246416992,-0.256720836,-0.068374709,0.212904479,769.1941392,762.3443223,811.5018315,758.7179487,669.2673993,-0.273621,0.197449,0.963013,5.368347,-5.241241,-3.775787,1.0,1.0,1.0,1.0,1.0,60.0,2
1.685770496,1.497086476,1.273832155,1.735108409,0.850092223,1.40987357,1.174847764,0.65561134,1.079434445,1.115184827,0.799716999,0.966562834,0.942383698,0.900147692,0.686223183,0.907297313,0.124053014,0.353103561,-0.068374709,0.116621197,763.956044,835.2747253,811.5018315,770.0,777.6556777,-0.270264,0.19873,0.951416,4.972076,-2.923431,-1.839294,1.0,1.0,1.0,1.0,1.0,60.0,2
1.528336398,1.466474448,1.440466569,1.584513234,0.787406508,1.392635658,0.69412896,0.529718127,1.017546954,1.137544878,0.698773373,0.949889919,0.752047679,0.88015853,0.364926705,0.761684344,0.103753265,0.253158133,-0.197828502,0.096997613,760.7326007,791.3553114,810.6959707,762.7472527,802.6373626,-0.264404,0.195374,0.963074,5.50293,-3.970184,-2.250519,1.0,1.0,1.0,1.0,1.0,60.0,2
1.446624438,1.466474448,1.355762498,1.491413773,0.708733936,1.392635658,0.622171898,0.542999792,1.017546954,1.137544878,0.716999448,0.98571943,0.715993275,0.88015853,0.373136505,0.736525251,0.122008166,0.253158133,-0.199564196,0.135755362,894.9084249,794.5787546,711.5750916,916.6666667,747.8388278,-0.278076,0.194092,0.968018,4.059906,-15.230255,-8.658142,1.0,1.0,1.0,1.0,1.0,60.0,2
1.429418736,0.973234325,0.675534374,1.34256425,1.142179766,0.597945329,0.347166497,0.73632847,1.229294117,0.298036247,0.460079658,1.090654433,0.719463406,0.352381978,0.098965678,0.700775755,0.025643753,-0.101094083,-0.071816863,0.268462946,811.9047619,793.7728938,807.8754579,784.5054945,686.996337,-0.291077,0.161438,0.959778,5.764618,-4.336548,-1.786957,1.0,1.0,1.0,1.0,1.0,55.0,2
1.327575635,0.89207672,0.943169314,1.472799342,1.008588284,0.611853324,0.536365753,0.641339593,1.265890756,0.40205231,0.49994258,1.090654433,0.666798848,0.765802704,0.217848222,0.654551769,-0.025459626,0.465387796,-0.072365635,0.22055243,809.0842491,804.2490842,802.2344322,746.6300366,746.6300366,-0.291931,0.161987,0.958618,5.85434,-4.912262,-2.826233,1.0,1.0,1.0,1.0,1.0,55.0,2
1.264399188,0.860129567,0.909832028,1.492992506,0.785450873,0.50322255,0.611279936,0.563188722,1.312404991,0.603392634,0.580027786,1.06161183,0.777437622,0.761920377,0.246700492,0.647965364,0.025737866,0.462245014,-0.154381506,0.088878246,790.952381,800.2197802,797.8021978,790.1465201,748.2417582,-0.284607,0.160583,0.961975,5.600128,-4.07486,-2.661743,1.0,1.0,1.0,1.0,1.0,55.0,2
1.127897807,0.778393566,0.921261791,1.340782428,0.563470404,0.373310398,0.635167749,0.537823061,1.238360849,0.643377443,0.635671563,1.002968836,0.724305778,0.726737095,0.313783662,0.630686848,-0.07076154,0.441729868,-0.236285098,0.113050825,748.6446886,792.1611722,794.1758242,793.3699634,572.1611722,-0.281311,0.165527,0.976868,6.116028,-4.882355,-2.257996,1.0,1.0,1.0,1.0,1.0,55.0,2
1.266832822,0.746040944,0.652478396,1.182860383,0.60326533,0.138828048,0.608627135,0.722403383,1.215609858,0.660260299,0.741990118,1.040392913,0.692702528,0.338914012,0.281656843,0.667245769,-0.049161827,-0.068621528,-0.271270453,0.111789278,705.5311355,739.7802198,801.4285714,729.7069597,805.4578755,-0.27356,0.163391,0.967651,5.644989,-3.244934,-2.048645,1.0,1.0,1.0,1.0,1.0,55.0,2
1.502393317,1.415861209,1.076191421,1.193139291,0.730659235,0.697784921,0.676366601,0.79269427,1.252114042,0.942166678,0.775974463,1.105869054,0.514782021,0.364074963,0.337696576,0.685887881,-0.024424171,0.046418136,-0.072521451,0.266469367,742.1978022,790.5494505,794.5787546,733.3333333,596.3369963,-0.269714,0.15863,0.962036,5.308533,-4.463654,-2.4823,1.0,1.0,1.0,1.0,1.0,55.0,2
1.571680627,1.581191897,1.236636489,1.31183966,0.791017299,0.833029742,0.813631921,0.866664807,1.261627344,0.950454309,0.711707818,1.099482741,0.569229943,0.430729617,0.340718746,0.714162777,0.138516311,0.137941908,0.009368236,0.306102216,747.032967,800.6227106,791.3553114,763.5531136,658.7912088,-0.271729,0.174683,0.971619,6.265564,-4.07486,-0.007477,1.0,1.0,1.0,1.0,1.0,55.0,2
1.468229614,1.611045215,1.448305955,1.199808514,0.712084956,0.908861737,0.805522114,0.681798133,1.194200821,0.945061356,0.695815189,1.021592888,0.637554018,0.374140935,0.326612068,0.666907612,0.149274481,0.109641996,-0.016533464,0.42011234,760.3296703,780.4761905,809.8901099,764.3589744,646.3003663,-0.272522,0.166199,0.975098,5.570221,-3.162689,-2.773895,1.0,1.0,1.0,1.0,1.0,55.0,2
1.104489733,1.293891304,1.245579004,0.944358227,0.665074412,0.675877918,0.672917527,0.356849138,1.203539432,0.90325017,0.481147255,0.882441267,0.601592058,0.232819824,0.206961137,0.729645273,0.065273639,-0.208048641,-0.294800248,0.237799646,771.2087912,792.967033,782.8937729,776.043956,724.8717949,-0.267761,0.168213,0.966858,5.607605,-4.134674,-2.325287,1.0,1.0,1.0,1.0,1.0,55.0,2
0.819932715,0.835677292,1.102306449,0.884825076,0.817535353,0.427717945,0.556515286,0.49178125,1.146817741,0.728311786,0.50385535,1.067333378,0.65467222,0.078216265,0.145350667,0.699823031,-0.066063541,-0.61653489,-0.388764325,0.17132913,781.6849817,794.981685,788.9377289,789.7435897,791.7582418,-0.271606,0.1651,0.965088,5.428162,-4.478607,-2.459869,1.0,1.0,1.0,1.0,1.0,55.0,2
0.837188304,0.665378789,0.692895225,0.763575843,0.848217858,0.13234476,0.421785231,0.607737877,1.002526089,0.547361019,0.470240614,1.069286538,0.592902252,0.074736236,0.101256897,0.731793394,-0.102866126,-0.660987098,-0.516501155,0.042069911,787.3260073,755.4945055,758.3150183,798.2051282,884.4322344,-0.264648,0.157776,0.972168,5.682373,-3.192596,-2.639313,1.0,1.0,1.0,1.0,1.0,55.0,2
0.909737972,0.652246258,0.577244852,0.728773349,0.903098681,0.043680873,0.398720572,0.689683608,0.971000859,0.531622273,0.453267371,1.064675963,0.658132602,0.032029627,0.083048211,0.700548214,-0.055778757,-0.631054252,-0.510724966,-0.021430618,774.029304,793.3699634,793.7728938,764.7619048,784.1025641,-0.266663,0.166565,0.960938,5.674896,-4.501038,-2.519684,1.0,1.0,1.0,1.0,1.0,55.0,2
0.761695301,0.709137238,0.347941215,0.687408931,0.672619755,0.087746338,0.186806299,0.785693265,0.77385044,0.418988262,0.354800577,0.640574457,0.471110427,0.027652495,0.09222554,0.711630535,-0.085531122,-0.603001734,-0.54461585,-0.118143982,772.4175824,794.1758242,790.1465201,764.3589744,687.8021978,-0.26355,0.164612,0.968445,5.555267,-3.887939,-2.213135,1.0,1.0,1.0,1.0,1.0,55.0,2
0.06079269,-0.037792035,0.38036618,0.761045004,0.674471995,-0.028228045,-0.088842377,0.498319583,0.917636348,0.044116392,0.219675854,0.780368755,0.63650924,0.271711328,0.241780057,0.60401526,-0.265339205,-0.33236165,-0.422503496,-0.056887699,784.1025641,800.6227106,783.2967033,796.5934066,822.3809524,-0.25885,0.15741,0.966431,5.607605,-4.351501,-1.839294,1.0,1.0,1.0,1.0,1.0,55.0,2
0.530508894,0.286946511,0.365528636,1.054328617,0.560844963,0.029981115,0.022642731,0.412303793,0.929048874,0.243921096,0.270524745,0.786686767,0.762394166,0.244417413,0.254623011,0.646199122,-0.255515338,-0.364695497,-0.413590264,-0.045909089,802.2344322,773.2234432,764.7619048,793.3699634,670.8791209,-0.260132,0.159546,0.97406,5.495453,-3.005676,-2.901001,1.0,1.0,1.0,1.0,1.0,55.0,2
0.530508894,0.286946511,0.992947707,1.054328617,0.560844963,0.029981115,0.893655987,0.412303793,0.929048874,0.243921096,1.238064173,0.786686767,0.762394166,0.244417413,0.42712824,0.646199122,-0.255515338,-0.364695497,-0.194979615,-0.045909089,782.0879121,790.952381,784.5054945,768.7912088,618.0952381,-0.254517,0.158997,0.968079,5.764618,-3.843079,-1.689758,1.0,1.0,1.0,1.0,1.0,55.0,2
0.80283985,0.49676993,1.164340148,1.229030862,0.527521086,0.027770607,1.034277361,0.262392004,0.82982748,0.267127462,1.242414493,0.491386066,0.845591032,0.201571555,0.438112403,0.658613223,-0.190203395,-0.44528819,-0.016583068,-0.049459764,782.4908425,788.9377289,795.3846154,864.2857143,709.96337,-0.263489,0.160706,0.967957,6.130981,-4.127197,-1.233673,1.0,1.0,1.0,1.0,1.0,55.0,2
1.319497144,0.530561493,1.23229665,1.930527416,0.767511208,-0.090265127,1.083797371,0.68326937,0.845349442,0.132538196,1.242414493,0.527042003,0.585856153,0.210968651,0.44213227,0.596816589,0.047439718,-0.724700406,0.021075777,0.100555912,973.8827839,826.4102564,788.1318681,1016.593407,641.0622711,-0.26416,0.179626,0.971741,6.06369,-5.704803,-3.080444,1.0,1.0,1.0,1.0,1.0,55.0,2
1.319497144,0.530561493,1.086184192,1.930527416,0.767511208,-0.090265127,0.802609307,0.68326937,0.845349442,0.132538196,1.102695165,0.527042003,0.585856153,0.210968651,0.238277052,0.596816589,0.047439718,-0.724700406,-0.003792,0.100555912,772.8205128,774.4322344,800.6227106,796.5934066,610.8424908,-0.250244,0.16333,0.966309,5.069275,-4.979553,-2.160797,1.0,1.0,1.0,1.0,1.0,55.0,2
1.319497144,0.530561493,1.066041802,1.930527416,0.767511208,-0.090265127,0.568792365,0.68326937,0.845349442,0.132538196,1.026900096,0.527042003,0.585856153,0.210968651,0.598509252,0.596816589,0.047439718,-0.724700406,0.085107763,0.100555912,828.4249084,761.5384615,745.4212454,842.5274725,684.981685,-0.242981,0.161987,0.971741,5.046844,-4.067383,-1.286011,1.0,1.0,1.0,1.0,1.0,60.0,2
1.319497144,0.530561493,1.121208138,1.930527416,0.767511208,-0.090265127,0.646980965,0.68326937,0.845349442,0.132538196,1.026900096,0.527042003,0.585856153,0.210968651,0.673010267,0.596816589,0.047439718,-0.724700406,0.153944982,0.100555912,781.6849817,807.0695971,783.6996337,809.8901099,833.6630037,-0.243896,0.162354,0.971924,6.258087,-5.046844,-2.534637,1.0,1.0,1.0,1.0,1.0,60.0,2
1.319497144,0.530561493,1.121208138,1.930527416,0.767511208,-0.090265127,0.646980965,0.68326937,0.845349442,0.132538196,1.026900096,0.527042003,0.585856153,0.210968651,0.673010267,0.596816589,0.047439718,-0.724700406,0.153944982,0.100555912,802.6373626,791.7582418,815.9340659,807.0695971,732.5274725,-0.242615,0.165588,0.963501,6.654358,-2.676697,-4.082336,1.0,1.0,1.0,1.0,1.0,60.0,2
1.319497144,0.530561493,1.17153363,1.602072335,0.767511208,-0.090265127,0.764858244,0.711904978,0.845349442,0.132538196,1.026953619,0.557485283,0.585856153,0.210968651,0.703040418,0.726034116,0.047439718,-0.724700406,0.242739699,0.438318998,791.7582418,844.9450549,806.2637363,811.9047619,754.6886447,-0.232422,0.162415,0.983215,5.973969,-3.72345,-2.108459,1.0,2.0,1.0,1.0,2.0,60.0,2
1.319497144,0.530561493,1.17153363,1.663469784,0.767511208,-0.090265127,0.764858244,0.704372254,0.845349442,0.132538196,1.026953619,0.696994149,0.585856153,0.210968651,0.703040418,0.741028105,0.047439718,-0.724700406,0.242739699,0.470653059,711.1721612,783.2967033,807.4725275,785.7142857,733.7362637,-0.269592,0.169373,0.960388,7.147827,0.433655,-2.056122,1.0,1.0,1.0,1.0,1.0,60.0,2
1.319497144,0.530561493,1.17153363,1.663469784,0.767511208,-0.090265127,0.764858244,0.704372254,0.845349442,0.132538196,1.026953619,0.696994149,0.585856153,0.210968651,0.703040418,0.741028105,0.047439718,-0.724700406,0.242739699,0.470653059,742.1978022,800.2197802,790.952381,781.6849817,752.6739927,-0.253784,0.171204,0.972412,5.323486,-2.594452,-2.041168,1.0,1.0,1.0,1.0,1.0,60.0,2
1.319497144,0.530561493,1.17153363,1.543999613,0.767511208,-0.090265127,0.764858244,0.525437092,0.845349442,0.132538196,1.026953619,0.636567439,0.585856153,0.210968651,0.703040418,0.684388206,0.047439718,-0.724700406,0.242739699,0.478886224,757.5091575,790.952381,809.4871795,799.010989,853.8095238,-0.250916,0.174011,0.972412,4.508514,-4.538422,-2.85614,1.0,1.0,1.0,1.0,1.0,60.0,2
1.42414791,0.530561493,1.180559818,1.011059588,0.545896511,-0.090265127,0.193073222,0.422513325,0.703049767,0.132538196,0.306323974,0.864741883,0.677331067,0.210968651,0.258364279,0.721133006,0.196038236,-0.724700406,-0.230571285,0.362469585,740.5860806,790.952381,796.996337,766.3736264,826.8131868,-0.252136,0.161865,0.963501,5.211334,-4.396362,-2.766418,1.0,1.0,1.0,1.0,1.0,60.0,2
1.524571129,0.522329328,1.079595949,0.995306229,0.517569716,-0.455763483,0.140472875,0.381732142,0.77669028,0.292374185,0.32734006,0.877257862,0.693916144,-0.169435945,0.175931118,0.632979783,0.144718593,-0.439681776,-0.280499689,0.479494375,781.2820513,797.3992674,792.1611722,777.2527473,694.2490842,-0.252869,0.163086,0.974548,5.345917,-3.977661,-2.003784,1.0,1.0,1.0,1.0,1.0,60.0,2
1.514152451,0.554068606,0.983054712,0.897434839,0.518654853,-0.096412401,0.305414475,0.384984917,1.110468426,0.491368962,0.502364428,0.859061846,0.662444207,0.025865033,0.240222632,0.602704396,0.114265129,-0.377956452,-0.317557503,0.454625493,836.8864469,770.0,758.7179487,843.7362637,774.8351648,-0.255249,0.163818,0.970886,5.884247,-3.050537,-2.624359,1.0,1.0,1.0,1.0,1.0,60.0,2
1.557116713,0.556357896,0.748836795,0.836918759,0.502748077,-0.065396128,0.357102994,0.345592941,1.061722791,0.491368962,0.500927707,0.84083247,0.653947775,0.019338444,0.194073981,0.494238246,0.061158509,-0.396832241,-0.369761342,0.511271291,769.1941392,778.8644689,797.3992674,763.956044,697.8754579,-0.244873,0.163635,0.963074,5.450592,-3.917847,-2.205658,1.0,1.0,1.0,1.0,1.0,60.0,2
1.486956814,0.589396905,0.696282484,0.560940599,0.521355894,0.170092043,0.510725922,0.36761926,1.032503743,0.419618866,0.511858494,0.368564791,0.572057561,0.216441176,0.316468353,0.491687467,0.027232468,-0.312294398,-0.369165764,0.391445879,783.6996337,792.967033,806.2637363,777.6556777,624.9450549,-0.245972,0.15741,0.963806,5.308533,-5.076752,-2.228088,1.0,1.0,1.0,1.0,1.0,60.0,2
1.115932657,0.563564961,0.743800776,1.116806807,0.698036781,0.166491294,0.099726606,0.564274463,0.886529049,0.209424991,0.332541005,0.776454655,0.568274544,0.35554717,0.325682082,0.572042865,0.387416829,-0.360904605,-0.233880502,0.415243089,769.1941392,799.4139194,792.5641026,772.014652,805.8608059,-0.238159,0.161377,0.973022,5.809479,-4.912262,-2.15332,1.0,1.0,1.0,1.0,1.0,60.0,2
1.010935565,0.586764649,0.762851437,0.962550598,0.657589798,0.321512775,0.172643794,0.666552695,0.91987986,0.345076088,0.359370571,0.816627055,0.519706582,0.29360899,0.261556253,0.616958957,0.224891666,-0.30337266,-0.172639378,0.324878378,787.7289377,798.6080586,792.1611722,796.5934066,806.2637363,-0.241943,0.159241,0.974792,5.764618,-4.515991,-2.205658,1.0,1.0,1.0,1.0,1.0,60.0,2
1.121078552,0.548417887,0.641260697,0.868971341,0.809792035,0.279462474,0.267531692,0.74985591,1.03170742,0.38413369,0.364952341,0.929833221,0.547486445,0.243215369,0.220552037,0.700744202,0.175385439,-0.363047022,-0.212805042,0.304892159,795.3846154,792.5641026,793.7728938,791.7582418,546.3736264,-0.235413,0.157288,0.977661,5.435638,-3.401947,-2.385101,1.0,1.0,1.0,1.0,1.0,60.0,2
1.143454095,0.6358863,0.871556185,0.669284274,0.843850031,0.391539338,0.561485671,0.80177609,1.045397371,0.47060389,0.801124146,0.967534776,0.56659758,0.215369931,0.158905015,0.764605792,0.005897128,-0.332341039,-0.175129841,0.280172653,783.6996337,789.3406593,789.3406593,761.9413919,676.5201465,-0.234375,0.158813,0.97113,6.572113,-4.650574,-1.457977,1.0,1.0,1.0,1.0,1.0,60.0,2
1.267899685,0.648066967,1.450173672,0.628060279,0.955958683,0.351726292,1.194978387,0.835735051,1.045397371,0.429013437,1.204483752,0.950227249,0.626906994,0.220850372,0.213306182,0.82752901,0.034626199,-0.391198054,-0.213576127,0.323803642,780.0732601,800.2197802,794.5787546,756.3003663,834.0659341,-0.23291,0.1604,0.977417,4.859924,-4.179535,-2.190704,1.0,1.0,1.0,1.0,1.0,60.0,2
1.069480266,0.593328326,1.451690445,0.890141808,0.802824174,0.273744985,1.184575381,0.793537459,1.186859265,0.370437158,1.204483752,0.968581233,0.634558001,0.319867185,0.251428875,0.601729774,0.054403727,-0.318822172,-0.156007747,0.301320616,774.4322344,784.9084249,790.952381,786.5201465,702.7106227,-0.237122,0.151978,0.980652,5.749664,-3.872986,-1.315918,1.0,1.0,1.0,1.0,1.0,60.0,2
0.780051834,0.122796973,1.401338036,0.937155508,0.936546575,-0.198673141,1.141541112,0.878294545,1.247067714,0.223497093,1.204483752,0.925448457,0.587782097,0.218476746,0.27194237,0.610468727,0.160092054,-0.33557862,-0.192888412,0.284174121,773.2234432,795.7875458,781.6849817,776.043956,766.3736264,-0.225769,0.155823,0.975647,5.158997,-3.446808,-1.697235,1.0,1.0,1.0,1.0,1.0,60.0,2
0.720184269,0.251064425,0.552787138,0.882616155,0.877244673,-0.012686296,0.304550369,0.743606381,1.247067714,0.35469922,0.61125495,0.996062883,0.628704549,0.21273693,0.214439935,0.627940829,0.24245699,-0.304826189,-0.206779409,0.240556074,774.8351648,792.967033,778.4615385,774.029304,637.4358974,-0.219604,0.152222,0.972839,5.802002,-3.775787,-2.123413,1.0,1.0,1.0,1.0,1.0,60.0,2
0.831251566,0.251991326,0.572538656,0.932280488,0.818558756,0.075613539,0.436462434,0.650483504,1.243692541,0.348835061,0.566873262,1.099792071,0.616270664,0.185920443,0.175941611,0.66680831,0.247109873,-0.307064063,-0.237181868,0.299605707,774.4322344,801.4285714,782.4908425,781.2820513,746.6300366,-0.219849,0.153381,0.981201,5.824432,-4.299164,-1.398163,1.0,1.0,1.0,1.0,1.0,60.0,2
0.878830011,0.257848442,0.588399482,0.901612087,0.660999027,0.145985838,0.482862735,0.389434169,1.087710464,0.405923643,0.559133214,0.966449595,0.637568257,0.238826262,0.156235257,0.696409536,0.223186514,-0.345451352,-0.333906244,0.277470462,829.6336996,755.8974359,764.7619048,859.4505495,682.1611722,-0.233337,0.161926,0.984009,5.443115,-2.69165,-1.4505,1.0,1.0,1.0,1.0,1.0,55.0,2
0.996471175,0.224088438,0.611376412,0.984928386,0.573590532,0.153511855,0.550440794,0.354610939,0.99647579,0.344845644,0.487379583,0.949569887,0.607472446,0.288225214,0.15302233,0.712291488,0.149498747,-0.402803951,-0.348009536,0.339281943,778.4615385,792.1611722,790.1465201,765.1648352,707.1428571,-0.227417,0.161804,0.970886,5.757141,-3.701019,-1.77948,1.0,1.0,1.0,1.0,1.0,55.0,2
0.887282678,0.21053443,0.561633306,0.886204763,0.683650818,0.019314898,0.394137418,0.505783139,0.864230937,0.224586448,0.457276124,0.909324933,0.662797916,0.252801435,0.210109916,0.764830232,0.054668767,-0.529200368,-0.504576146,0.287421618,757.1062271,787.3260073,794.981685,784.9084249,670.4761905,-0.224976,0.153381,0.972778,5.585175,-3.588867,-2.50473,1.0,1.0,1.0,1.0,1.0,55.0,2
0.886150537,0.026588166,0.18011152,0.496003907,0.115349226,-0.1639886,-0.310229789,0.256261041,0.942645215,0.233811174,0.072160729,0.519767272,0.645639559,-0.039032508,0.131487273,0.630547137,-0.125612465,-0.529587202,-0.254109002,0.285021433,784.1025641,777.6556777,791.7582418,831.6483516,798.6080586,-0.229736,0.156372,0.977539,5.592651,-4.246826,-1.742096,1.0,1.0,1.0,1.0,1.0,55.0,2
1.073505067,0.532039828,0.366217702,1.155822128,0.741353641,0.103378963,0.029176624,0.875135281,1.148571462,0.626881271,0.64986603,1.074519973,0.650861126,0.295158847,0.259956823,0.762804664,0.050963323,-0.457084031,-0.328625505,0.288446511,756.3003663,824.7985348,801.025641,742.6007326,587.8754579,-0.229675,0.159058,0.977905,6.340332,-2.773895,-1.226196,1.0,1.0,1.0,1.0,1.0,55.0,2
1.073505067,0.536967893,0.364610536,1.155822128,0.741353641,0.117724907,0.059835815,0.875135281,1.148571462,0.626881271,0.64986603,1.074519973,0.650861126,0.31881222,0.271296799,0.762804664,0.050963323,-0.448112046,-0.320865809,0.288446511,807.4725275,773.6263736,791.7582418,786.5201465,702.7106227,-0.221558,0.160645,0.975281,6.445007,-7.289886,-0.321503,1.0,1.0,1.0,1.0,1.0,55.0,2
1.203967759,0.793364661,0.517966539,1.366650316,0.987707047,0.294170987,0.246856344,1.081312,1.120124675,0.621350195,0.647168664,1.074519973,0.656020659,0.51108937,0.376327877,0.845599568,0.176144121,-0.383547377,-0.439108544,0.291167257,806.6666667,788.1318681,802.2344322,802.6373626,804.6520147,-0.219666,0.162537,0.972229,5.368347,-2.609406,-3.035583,1.0,1.0,1.0,1.0,1.0,55.0,2
1.277646199,1.107578555,1.595091952,1.448786773,1.063174155,0.226145906,0.843262943,1.151478175,1.070216993,0.435910389,1.060909848,1.074519973,0.646321118,0.20731156,0.715476894,0.855966446,0.224433922,-0.345288396,0.120559141,0.235652824,803.040293,815.9340659,800.2197802,774.8351648,745.4212454,-0.208862,0.166992,0.978699,5.293579,-4.246826,-2.108459,1.0,1.0,1.0,1.0,1.0,55.0,2
1.45223247,1.039538946,1.482010792,1.490201068,1.361819278,0.362948755,0.713429697,1.014082834,1.145983589,0.534634836,1.060909848,1.082480485,0.764046914,0.186034666,0.559704883,0.753797707,-0.024586773,-0.353586286,-0.008827575,0.094469006,798.2051282,800.6227106,808.2783883,753.8827839,667.6556777,-0.228943,0.165283,0.974121,6.302948,-7.574005,-1.61499,1.0,1.0,1.0,1.0,1.0,55.0,2
1.367235645,0.941957565,1.344896191,1.382459119,1.330313409,0.377627518,0.668707833,0.953438096,1.150346739,0.653946559,1.060909848,1.082480485,0.787113961,0.197733258,0.482096413,0.704414315,0.111778205,-0.378065786,-0.07742083,0.089634706,764.7619048,789.7435897,801.8315018,775.6410256,672.0879121,-0.205017,0.16626,0.974548,5.779572,-3.760834,-2.616882,1.0,1.0,1.0,1.0,1.0,55.0,2
1.256447283,0.846577301,1.203967044,1.238522373,1.203549824,0.407055004,0.713353119,0.725657849,1.066352722,0.650585115,0.956832721,0.90744199,0.770590804,0.15607639,0.320411794,0.66153,0.143423184,-0.343196706,-0.194489376,0.03941269,634.2124542,864.6886447,880.0,651.1355311,744.6153846,-0.20636,0.165527,0.985901,4.665527,-2.983246,-1.996307,1.0,1.0,1.0,1.0,1.0,55.0,2
1.180805303,0.709193508,0.993293179,1.110041036,1.162960321,0.397765999,0.781047602,0.707886934,0.760264847,0.658953512,0.679619736,0.862064343,0.789343176,0.136849662,0.222686414,0.648081593,0.211195856,-0.345572424,-0.253631654,0.004849901,777.6556777,806.6666667,784.1025641,770.0,590.6959707,-0.209351,0.175903,0.980896,5.906677,-3.768311,-2.056122,1.0,1.0,1.0,1.0,1.0,55.0,2
1.029524614,0.797338307,1.171378419,1.003276903,0.844122576,0.408949889,0.956066524,0.505197189,0.707479131,0.429163868,0.676845746,0.381571974,0.756185918,0.01862628,0.172312028,0.685366115,0.201212803,-0.253746234,-0.249965728,-0.117906871,782.8937729,810.2930403,789.7435897,767.5824176,724.8717949,-0.219788,0.173828,0.972229,5.196381,-2.788849,-1.94397,1.0,1.0,1.0,1.0,1.0,55.0,2
1.328612958,0.739127802,1.09566784,1.003276903,0.901410742,0.436606321,0.567152498,0.505197189,0.789115098,0.424332991,0.634722658,0.381571974,0.817595939,0.159554118,0.284706451,0.685366115,0.08081816,-0.150705096,-0.284894942,-0.117906871,771.2087912,801.4285714,791.3553114,800.6227106,942.4542125,-0.221313,0.172852,0.96991,5.757141,-3.37204,-2.527161,1.0,1.0,1.0,1.0,1.0,55.0,2
1.365436458,0.323290162,0.767807561,1.445629557,1.034526958,0.234210002,0.161389796,1.170339219,1.127549087,0.258303531,0.469631681,1.100067035,0.776795972,0.059982002,0.239640932,0.741224358,0.036842103,-0.232605287,-0.243305512,0.370081486,782.4908425,797.3992674,799.4139194,797.3992674,643.4798535,-0.219666,0.169922,0.971619,5.547791,-3.671112,-2.370148,1.0,1.0,1.0,1.0,1.0,55.0,2
1.30241223,0.754296373,0.767697994,1.291258615,1.090180441,0.398832485,0.370624282,1.078816473,1.128557689,0.539718092,0.69862397,1.102253002,0.809902544,0.11944814,0.245123663,0.782117581,0.039202606,-0.290546637,-0.27630026,0.377349698,834.0659341,771.6117216,771.2087912,818.3516484,849.7802198,-0.221436,0.171814,0.977112,5.271149,-3.491669,-1.9664,1.0,1.0,1.0,1.0,1.0,55.0,2
1.290240034,0.822382094,0.628985258,1.242589765,1.153391017,0.41795885,0.425196936,1.097450822,1.128557689,0.539292391,0.69862397,1.102253002,0.806439018,0.076240969,0.21811889,0.78541239,0.019344478,-0.38246915,-0.267018742,0.396486158,783.6996337,789.3406593,792.1611722,773.2234432,678.9377289,-0.222473,0.171875,0.973511,5.816956,-4.63562,-1.891632,1.0,1.0,1.0,1.0,1.0,55.0,2
1.114390738,1.052931094,0.709358357,0.694473401,1.19419635,0.563830895,0.562725488,0.84927637,0.928834679,0.540627442,0.710487375,0.913229476,0.876282358,0.231479603,0.246443876,0.845548609,0.044467292,-0.4386066,-0.300061088,0.389783527,769.5970696,791.7582418,783.2967033,799.4139194,755.0915751,-0.226318,0.172363,0.965149,5.891724,-2.429962,-1.502838,1.0,1.0,1.0,1.0,1.0,55.0,2
1.003566754,0.822022674,1.077956944,0.947774133,0.984398833,0.442071053,0.703797676,0.740570803,0.986675125,0.517521283,0.751997421,0.776653318,0.875537267,0.298691159,0.212772048,0.71431581,0.047561737,-0.310159853,-0.248207457,0.358899545,781.2820513,767.5824176,779.6703297,791.3553114,712.7838828,-0.224854,0.173828,0.977966,5.420685,-3.678589,-1.300964,1.0,1.0,1.0,1.0,1.0,55.0,2
1.003566754,0.822022674,1.537469063,0.947774133,0.984398833,0.442071053,1.262501727,0.740570803,0.986675125,0.517521283,1.265547023,0.776653318,0.875537267,0.298691159,0.306984323,0.71431581,0.047561737,-0.310159853,-0.216696492,0.358899545,784.5054945,791.3553114,787.7289377,800.6227106,812.7106227,-0.229431,0.176575,0.975281,5.682373,-3.416901,-1.77948,1.0,1.0,1.0,1.0,1.0,55.0,2
1.129566703,1.02720997,1.454685767,1.052978821,0.623782917,0.331681983,1.160285401,0.703011713,1.148339178,0.71232172,1.265547023,0.808700547,0.809571721,0.42808516,0.288484098,0.622748096,0.131039133,-0.344128356,-0.211224431,0.270641615,756.7032967,807.0695971,790.952381,774.4322344,720.03663,-0.234985,0.185486,0.968933,7.297363,-3.162689,6.108551,1.0,1.0,1.0,1.0,1.0,55.0,2
1.233886485,0.644950162,1.5830954,1.274287866,1.001664564,0.27054423,0.601393761,0.921664399,1.189080566,0.48846274,0.712509741,1.189859963,0.702080724,0.171826905,0.466244556,0.891920954,0.047669735,-0.542304549,-0.250485651,0.451581395,774.029304,796.1904762,799.010989,786.5201465,750.2564103,-0.104065,0.068787,1.006348,5.211334,-4.037476,-2.31781,1.0,1.0,1.0,1.0,1.0,60.0,2
1.113501696,0.568102201,1.469013939,1.168456874,0.934264362,0.156778686,0.560386281,0.862799736,1.189080566,0.501468005,0.727723776,1.219924001,0.615980639,0.125255106,0.449616294,0.826845636,0.051302742,-0.512639929,-0.276868358,0.513528034,783.6996337,807.4725275,804.6520147,745.018315,736.5567766,-0.106384,0.071106,1.009277,6.190796,-3.461761,-1.390686,1.0,1.0,1.0,1.0,1.0,60.0,2
1.015237437,0.705301706,1.256850197,1.096622704,0.817745047,0.149745499,0.509521431,0.781392571,1.093673241,0.451403849,0.798883476,1.262214792,0.585149643,0.084749098,0.393636697,0.790500595,0.088222766,-0.495018156,-0.294885283,0.550802215,821.1721612,776.8498168,782.8937729,828.021978,871.1355311,-0.104126,0.065674,1.014709,5.271149,-4.830017,-3.140259,1.0,1.0,1.0,1.0,1.0,60.0,2
1.240330035,0.8828722,0.904001332,1.125844798,0.782610838,0.129423138,0.441389112,0.815298248,0.685146083,0.313380575,0.923208018,1.566194054,0.610707075,0.043137883,0.284695182,0.726687425,0.135585599,-0.512063782,-0.316120669,0.5820135,809.0842491,796.996337,809.4871795,806.6666667,1033.113553,-0.094543,0.068115,1.003601,6.153412,-4.07486,-2.355194,1.0,1.0,1.0,1.0,1.0,60.0,2
1.351108982,0.935892609,0.791215435,1.065028351,0.697696955,0.143544394,0.437169356,0.717732786,0.769286664,0.373668762,0.918730056,1.560826255,0.641057052,-0.025977978,0.210787681,0.717999665,0.207429432,-0.518373298,-0.357280023,0.593632466,764.7619048,803.4432234,810.2930403,729.3040293,811.9047619,-0.098816,0.065125,1.00647,5.929108,-4.321594,-1.772003,1.0,1.0,1.0,1.0,1.0,60.0,2
1.379166799,0.888280563,0.818845408,1.023035536,0.687625681,0.015944206,0.369242779,0.667176576,0.859753137,0.346105651,0.918731564,1.555229618,0.577239706,-0.001121418,0.187829624,0.669740774,0.203138477,-0.494256202,-0.417434788,0.487197495,758.7179487,805.8608059,809.0842491,720.4395604,716.8131868,-0.102234,0.067444,1.006836,5.772095,-3.626251,-2.676697,1.0,1.0,1.0,1.0,1.0,60.0,2
1.166064786,0.62425084,0.691660823,0.732586658,0.470555106,-0.086096441,0.19610524,0.276830588,0.942616266,0.18311433,0.428591696,0.909297048,0.610816287,0.097353207,0.134654748,0.640105934,0.175660347,-0.44570407,-0.502000166,0.396699504,759.1208791,809.4871795,817.5457875,800.2197802,859.8534799,-0.102722,0.065552,1.005493,5.330963,-4.164581,-2.616882,1.0,1.0,1.0,1.0,1.0,60.0,2
0.967737614,0.428328767,0.708935859,0.967944253,0.514137251,-0.067360456,0.316580807,0.277003352,0.973781871,0.125311614,0.603692877,0.804092171,0.640242757,0.153311289,0.155131811,0.610603007,0.086108079,-0.445336643,-0.496047304,0.246506548,780.0732601,810.6959707,806.2637363,730.9157509,701.0989011,-0.095886,0.065796,1.007202,5.637512,-4.658051,-1.659851,1.0,1.0,1.0,1.0,1.0,60.0,2
0.84933597,0.286492045,1.085726155,1.063928575,0.559283304,-0.093893535,0.673512964,0.264760903,1.029374621,0.457727546,0.746209545,0.878811582,0.673362529,0.194512064,0.228009689,0.581463786,0.054190809,-0.520692372,-0.447509525,0.215318897,765.1648352,794.1758242,803.8461538,745.8241758,506.0805861,-0.096069,0.068604,1.008423,5.33844,-2.714081,-2.13089,1.0,1.0,1.0,1.0,1.0,60.0,2
0.759886784,0.153875334,1.090398272,1.001955638,0.7832423,0.000292782,0.704718984,0.352915171,1.258983761,0.60093091,0.75201255,0.992077265,0.683189118,0.261475443,0.255914142,0.538876946,0.092133158,-0.542856443,-0.439751654,0.293910642,778.0586081,786.9230769,800.6227106,763.1501832,892.8937729,-0.095642,0.063232,1.017029,5.772095,-3.74588,-1.846771,1.0,1.0,1.0,1.0,1.0,60.0,2
0.822949716,0.331854887,1.057317493,0.784474441,0.909992216,0.079137733,0.66658637,0.392697957,1.415254154,0.597961992,0.75201255,1.096854798,0.657636075,0.290997025,0.2225278,0.533675339,0.149235856,-0.58759982,-0.423021851,0.286862197,782.4908425,787.3260073,801.025641,776.8498168,637.8388278,-0.088867,0.064331,1.00708,5.480499,-4.052429,-1.338348,1.0,1.0,1.0,1.0,1.0,60.0,2
1.101148332,0.3969504,0.357462812,0.837002344,1.121268056,0.166893758,0.36502718,0.653915105,1.533883132,0.59587705,0.658177941,1.220207094,0.65463167,0.270114157,0.11793326,0.677691396,0.184146258,-0.595166897,-0.401922465,0.306904527,694.6520147,794.1758242,792.1611722,744.6153846,548.3882784,-0.093933,0.066772,1.005737,6.235657,-4.11972,-1.570129,1.0,1.0,1.0,1.0,1.0,60.0,2
1.186527253,0.641515174,0.590929624,0.9506394,1.181908286,0.190470153,0.406447747,0.779352618,1.51512401,0.450516236,0.709719414,1.232255389,0.543221399,0.115265528,0.273947354,0.676280024,0.188491736,-0.674663574,-0.353665405,0.200500949,789.3406593,793.7728938,787.7289377,757.5091575,776.043956,-0.08728,0.064636,1.019287,5.839386,-3.618774,-2.115936,1.0,1.0,1.0,1.0,1.0,60.0,2
1.244784086,0.700137636,0.711305948,1.096203566,1.229883724,0.222038143,0.444006161,0.851864424,1.472902167,0.381498572,0.710356766,1.200090174,0.558893844,0.069401213,0.329288416,0.648002462,0.172450747,-0.730723241,-0.365530501,0.172394066,774.4322344,781.6849817,767.1794872,796.1904762,831.6483516,-0.08374,0.067444,1.005371,5.719757,-3.72345,-0.91217,1.0,1.0,1.0,1.0,1.0,60.0,2
1.207771088,0.692818387,0.783855676,1.09915518,0.83082646,0.173675843,0.29391155,0.817659662,1.266750928,0.460885647,0.710547781,1.127153952,0.563124437,0.103904726,0.334457843,0.604544088,-0.057093938,-0.681967879,-0.447241408,0.196307726,785.3113553,792.967033,803.040293,756.3003663,716.8131868,-0.083435,0.062805,1.009949,5.263672,-4.344025,-2.489777,1.0,1.0,1.0,1.0,1.0,60.0,2
1.087607215,0.605385425,0.892852271,1.14379252,0.786329357,0.117119409,0.226462987,0.675579354,0.97081948,0.392992498,0.536132722,0.754404486,0.517118288,0.107138091,0.232365109,0.550718105,-0.055142949,-0.615091785,-0.508922694,0.245413626,806.6666667,763.1501832,772.014652,780.8791209,711.978022,-0.085754,0.061829,1.008057,5.831909,-3.401947,-2.003784,1.0,1.0,1.0,1.0,1.0,60.0,2
1.074444258,0.786175423,1.225758534,1.07812959,0.748106319,0.001642434,0.261281734,0.664609648,1.011716402,0.440552147,0.532379751,0.697548312,0.47689737,0.040856626,0.249305291,0.624774525,-0.085683852,-0.52766732,-0.503510908,0.243708824,830.03663,793.7728938,826.007326,835.6776557,807.8754579,-0.082397,0.067566,1.005859,5.203857,-3.708496,-2.018738,1.0,1.0,1.0,1.0,1.0,60.0,2
1.13140896,0.971024985,1.425880602,1.140870985,0.82007412,-0.035309242,0.336905915,0.649431524,1.110866764,0.49252891,0.576134157,0.802780417,0.628586877,-0.007184107,0.385085969,0.685914664,0.006586146,-0.531197756,-0.441564318,0.207872727,776.043956,797.3992674,799.8168498,766.3736264,655.1648352,-0.076416,0.065735,1.006348,5.510406,-5.286102,-2.557068,1.0,1.0,1.0,1.0,1.0,60.0,2
1.420930696,1.024297758,1.461276172,1.306898572,0.880562864,0.141385079,0.25012803,0.746382351,1.164676375,0.563134576,0.619295774,1.013883744,0.742389424,0.122203217,0.432748126,0.791338544,0.014701125,-0.503282221,-0.385007617,0.136698108,635.018315,916.6666667,890.0732601,606.8131868,670.0732601,-0.087952,0.066528,1.006836,5.323486,-3.843079,-1.644897,1.0,1.0,1.0,1.0,1.0,60.0,2
1.530615732,0.960465128,1.407552969,1.409757917,0.9570105,0.205898081,0.111148562,0.688351648,1.164676375,0.561052734,0.659722052,1.013883744,0.848264635,0.242546607,0.449970028,0.835046949,0.077367751,-0.451713068,-0.378427745,0.146247134,771.6117216,810.6959707,800.6227106,805.0549451,926.3369963,-0.073059,0.064026,1.007324,5.547791,-2.901001,-1.884155,1.0,1.0,1.0,1.0,1.0,60.0,2
1.66581078,0.76754188,1.247980534,1.503169875,0.956916348,0.343005189,-0.181174726,0.77770216,1.135803214,0.47753948,0.553567451,0.96818005,0.836978038,0.337337018,0.346375257,0.835492199,0.01398861,-0.387290489,-0.392334582,0.170427053,760.7326007,802.2344322,777.2527473,767.1794872,818.3516484,-0.077087,0.065674,1.009094,5.465546,-4.216919,-2.272949,1.0,1.0,1.0,1.0,1.0,60.0,2
1.272574575,0.66832648,0.790767993,1.412496503,0.83611703,0.179570344,0.282301397,0.747938304,1.24553379,0.497032341,0.512551442,0.952572125,0.353938332,0.1603346,0.232742974,0.803968345,0.138211349,-0.523448926,-0.520422425,0.186343144,789.3406593,813.5164835,785.7142857,786.9230769,716.007326,-0.083374,0.063171,1.010071,6.108551,-3.18512,-1.674805,1.0,1.0,1.0,1.0,1.0,60.0,2
1.231870769,0.824642573,0.727810849,0.99916967,0.820723679,0.113613408,0.368981877,0.573818845,1.329625254,0.559569362,0.676769669,1.010694496,0.439772789,0.129075341,0.161244402,0.651183718,0.144225506,-0.501189234,-0.568515621,0.257664017,774.029304,808.6813187,786.1172161,754.2857143,834.8717949,-0.075073,0.062134,1.002747,5.390778,-4.807587,-2.362671,1.0,1.0,1.0,1.0,1.0,60.0,2
1.392591835,0.88528119,0.730161542,0.920776977,0.849338491,0.322113928,0.417813431,0.575520304,1.372211865,0.655410116,0.833088673,1.020873394,0.53242291,0.128381981,0.098166066,0.671105665,0.127700929,-0.479672787,-0.441449926,0.249049957,787.7289377,797.8021978,791.3553114,825.2014652,906.1904762,-0.075928,0.058289,1.008606,5.375824,-3.715973,-2.243042,1.0,1.0,1.0,1.0,1.0,60.0,2
1.371594124,0.961172287,0.636597442,0.914394427,0.803440189,0.456326897,0.385145784,0.615542223,1.174342552,0.728041397,0.841215585,1.20934789,0.684228108,0.228485618,0.157134079,0.729613096,0.095562854,-0.42096581,-0.377086156,0.177545861,792.5641026,797.8021978,794.1758242,869.1208791,917.8754579,-0.072632,0.064697,1.004517,5.742188,-4.545898,-1.861725,1.0,1.0,1.0,1.0,1.0,60.0,2
1.344637894,0.859302118,0.579616176,0.806847656,0.779192159,0.443184748,0.327900616,0.610663808,1.147712268,0.721973721,0.841215585,1.207563139,0.712760626,0.201300787,0.153236675,0.737774672,0.020616357,-0.46709861,-0.303097806,0.171555929,790.5494505,788.9377289,790.1465201,744.6153846,825.2014652,-0.072144,0.060913,1.008057,5.465546,-3.342133,-1.884155,1.0,1.0,1.0,1.0,1.0,60.0,2
1.064531587,0.684114227,0.463853205,0.656973258,0.560659652,0.321341468,0.163518985,0.541597163,1.018075113,0.679972012,0.694992947,1.165738476,0.662917737,0.182739428,0.173080133,0.794231951,-0.021961802,-0.42062088,-0.262478849,0.097244852,809.8901099,788.1318681,772.014652,789.3406593,755.4945055,-0.074707,0.062073,1.010437,6.048737,-3.18512,-2.355194,1.0,1.0,1.0,1.0,1.0,60.0,2
0.855548145,0.20647481,0.93581146,0.757759482,0.557114099,-0.008130356,-0.009082431,0.21217124,0.836465543,0.700087345,0.59691232,0.922129678,0.611009512,0.203232775,0.105087661,0.780272024,-0.072262443,-0.47482809,-0.259891187,0.319510459,789.7435897,784.1025641,798.6080586,813.1135531,933.5897436,-0.069031,0.0625,1.003845,5.413208,-4.052429,-1.921539,1.0,1.0,1.0,1.0,1.0,60.0,2
0.860941188,0.1730244,1.062650064,0.730978649,0.5027183,0.09508551,0.01044873,0.291792653,0.892200859,0.701977168,0.577134177,0.962056187,0.541529397,0.245106381,0.054655781,0.691494591,0.038616251,-0.417632481,-0.313880559,0.349636071,791.3553114,788.5347985,801.8315018,729.3040293,606.8131868,-0.081604,0.058777,1.002808,5.929108,-3.887939,-1.981354,1.0,1.0,1.0,1.0,1.0,60.0,2
1.179577777,0.256479508,1.057860433,0.813000142,0.677015464,0.091044356,0.026128081,0.241094757,1.050086461,0.733874574,0.577134177,0.962056187,0.574270985,0.264876025,0.110874852,0.666540172,0.041233258,-0.533741723,-0.483812364,0.33158831,773.6263736,803.040293,804.6520147,740.989011,763.5531136,-0.074463,0.060852,1.01178,5.809479,-4.201965,-1.824341,1.0,1.0,1.0,1.0,1.0,60.0,2
1.242374559,0.326277195,0.857280903,0.838668943,0.639313784,-0.001284061,0.077277825,0.225939296,1.058433749,0.687214057,0.458098015,0.840710219,0.501407241,0.190887642,0.168225269,0.680810567,0.060325481,-0.603961461,-0.658228223,0.347966657,765.970696,764.3589744,782.8937729,780.0732601,836.4835165,-0.115662,0.072327,1.007385,8.531036,5.480499,12.097473,1.0,1.0,1.0,1.0,1.0,60.0,2
1.357036473,0.422188589,0.591073372,0.912471962,0.667384715,-0.327642728,-0.035330102,0.113362336,0.998421056,0.626922629,0.213473891,0.464054229,0.517003376,0.097080762,0.235510549,0.728102532,-0.012124971,-0.793868234,-0.783622571,0.329697816,799.4139194,793.3699634,784.5054945,756.7032967,774.4322344,-0.110046,0.084656,1.003235,6.243134,-3.730927,-3.783264,1.0,1.0,1.0,1.0,1.0,60.0,2
1.225709413,1.052670106,1.210591752,0.850145514,0.566750437,0.669757947,0.741268604,0.093988997,0.904540666,0.72442914,0.698959207,0.410275773,0.553487889,0.33973745,0.416796388,0.817509058,-0.041537426,-0.506562655,-0.601164111,0.391157935,771.6117216,787.7289377,803.4432234,728.0952381,572.967033,-0.109192,0.086487,0.997009,4.9646,-1.637421,2.818756,1.0,1.0,1.0,1.0,1.0,60.0,2
1.574395238,1.133589075,1.470800245,1.138981652,0.476270864,0.832916377,0.90403698,0.906457205,1.083860122,0.728382774,0.745028074,0.867630384,0.503641934,0.432273617,0.536003372,0.900590326,-0.159793273,-0.588900763,-0.318345815,0.563158416,780.8791209,793.7728938,805.0549451,759.1208791,693.8461538,-0.138062,0.093201,1.00061,6.370239,-3.327179,4.47113,1.0,1.0,1.0,1.0,1.0,60.0,2
1.465713275,1.159496616,1.489617942,0.860439117,0.775747568,0.79176572,0.911812207,0.724276799,1.254926778,0.777955162,0.836963055,0.974754494,0.560443603,0.346889084,0.462525645,0.888016002,-0.086786522,-0.595539855,-0.345697924,0.499373143,736.959707,796.1904762,793.3699634,808.2783883,839.7069597,-0.133972,0.089417,0.999207,4.852448,-4.441223,-2.138367,1.0,1.0,1.0,1.0,1.0,60.0,2
0.958344913,0.171506739,1.138364009,1.753774439,0.744853307,-0.056147882,0.851189259,0.661460565,0.718975512,0.047072147,0.787052725,0.591594186,0.688157442,0.139845481,0.224287081,0.762703547,0.056270059,-0.294123404,-0.187723077,0.693298834,795.7875458,790.952381,788.9377289,805.0549451,896.9230769,-0.184875,0.027466,0.993225,5.667419,-2.489777,-1.749573,1.0,1.0,1.0,1.0,1.0,65.0,2
0.968837267,0.132775003,1.406783896,1.753774439,0.775338607,-0.042444599,1.096148337,0.661460565,0.708291957,0.031030691,0.789238232,0.591594186,0.70805607,0.112578748,0.185438667,0.762703547,0.01286207,-0.335190719,-0.185768487,0.693298834,758.3150183,775.2380952,783.2967033,760.3296703,807.0695971,-0.188721,0.024414,1.00354,6.422577,-2.945862,-1.719666,1.0,1.0,1.0,1.0,1.0,65.0,2
0.905282506,0.0902561,1.626918394,1.629424548,0.837808374,-0.06891857,1.42569633,0.552440787,0.689911354,-0.010619302,1.141637581,0.561542872,0.755479266,0.075698762,0.274232062,0.735596636,-0.091238405,-0.400284525,-0.200225618,0.725513969,749.8534799,788.5347985,788.5347985,724.4688645,707.9487179,-0.198792,0.028198,0.988464,6.287994,-3.087921,-1.480408,1.0,1.0,1.0,1.0,1.0,65.0,2
0.905282506,0.0902561,1.595967543,1.629424548,0.837808374,-0.06891857,1.384074757,0.552440787,0.689911354,-0.010619302,1.138175138,0.561542872,0.755479266,0.075698762,0.259895211,0.735596636,-0.091238405,-0.400284525,-0.234889629,0.725513969,838.9010989,737.7655678,762.3443223,765.970696,750.2564103,-0.217651,0.03064,0.986755,6.235657,-0.478516,-3.940277,1.0,1.0,1.0,1.0,1.0,65.0,2
0.905282506,0.0902561,1.419372179,1.629424548,0.837808374,-0.06891857,1.309909776,0.552440787,0.689911354,-0.010619302,1.117362734,0.561542872,0.755479266,0.075698762,0.290571311,0.735596636,-0.091238405,-0.400284525,-0.231512266,0.725513969,751.0622711,777.6556777,795.3846154,790.5494505,787.3260073,-0.207947,0.023865,0.991882,4.80011,-5.622559,-2.549591,1.0,1.0,1.0,1.0,1.0,65.0,2
0.905282506,0.0902561,0.96254761,1.629424548,0.837808374,-0.06891857,0.567413768,0.552440787,0.689911354,-0.010619302,0.759984009,0.561542872,0.755479266,0.075698762,0.117155793,0.735596636,-0.091238405,-0.400284525,-0.425746213,0.725513969,778.8644689,796.996337,782.4908425,808.2783883,853.003663,-0.203247,0.0271,0.991028,5.951538,-4.717865,-2.003784,1.0,2.0,1.0,1.0,2.0,65.0,2
0.704484329,0.344553881,0.357292285,0.588308607,0.441492649,-0.284128018,0.133615657,0.568968836,0.653829764,0.10361354,0.389052502,0.698769381,0.761730924,0.126646202,-0.041878034,0.939326047,0.386388583,-0.570436582,-0.286413666,0.551777914,812.3076923,782.4908425,796.5934066,949.7069597,880.4029304,-0.206177,0.03302,0.995178,6.071167,-5.196381,-2.616882,1.0,1.0,1.0,1.0,1.0,65.0,2
1.029381975,0.508421857,0.256648707,0.893331792,0.411403032,-0.208754477,0.204981011,0.540545926,0.671758107,0.348173089,0.525303327,0.75707726,0.710350384,0.120626099,0.089847376,0.895691186,0.370432831,-0.541698605,-0.354355087,0.522922241,848.974359,772.4175824,763.956044,767.1794872,780.4761905,-0.197327,0.032593,0.99585,5.839386,-3.117828,-2.616882,1.0,1.0,1.0,1.0,1.0,65.0,2
1.029381975,0.508421857,1.107007733,0.893331792,0.411403032,-0.208754477,0.857116249,0.540545926,0.671758107,0.348173089,0.940420668,0.75707726,0.710350384,0.120626099,0.225607039,0.895691186,0.370432831,-0.541698605,-0.303678442,0.522922241,781.2820513,787.7289377,784.5054945,770.8058608,888.8644689,-0.194702,0.028015,0.994812,5.188904,-3.334656,-2.071075,1.0,1.0,1.0,1.0,1.0,65.0,2
1.214426333,0.600131082,1.199762889,0.960162324,0.34965631,-0.058411669,0.925680686,0.410107963,0.575473674,0.421127998,0.939483828,0.721953998,0.646010404,0.127274485,0.215456754,0.753862181,0.357579879,-0.548804645,-0.294231226,0.427928085,770.4029304,784.9084249,802.6373626,831.6483516,866.7032967,-0.187256,0.031067,0.998169,5.458069,-4.239349,-1.009369,1.0,1.0,1.0,1.0,1.0,65.0,2
1.104794007,0.377205147,1.219516986,0.960162324,1.088715347,0.561267563,0.952782466,0.410107963,0.907298757,0.409632404,0.940376074,0.721953998,0.57222396,0.126230141,0.160662092,0.753862181,0.056736803,-0.599831622,-0.288204183,0.427928085,781.2820513,781.6849817,796.5934066,738.5714286,644.2857143,-0.189575,0.027039,1.000183,5.33844,-4.07486,-2.280426,1.0,1.0,1.0,1.0,1.0,60.0,2
1.214608075,0.79930955,0.939689458,1.192520313,1.351686259,0.706108436,0.620323921,0.765837723,1.343561428,0.552956059,0.886990257,0.781619214,0.860202198,0.283724852,-0.06297753,0.568287203,0.027491813,-0.645073643,-0.36804164,0.49651715,763.956044,798.6080586,780.4761905,696.6666667,632.6007326,-0.182739,0.033691,0.992676,5.413208,-4.388885,-1.869202,1.0,1.0,1.0,1.0,1.0,60.0,2
1.252360878,0.737914102,0.741295162,1.379412175,1.352612612,0.626545459,0.478539569,0.842284278,1.413006949,0.590245193,0.828647032,0.809571053,0.851395689,0.265324664,-0.04471577,0.659481111,0.024871574,-0.552437399,-0.436251152,0.405105624,778.4615385,798.6080586,791.3553114,807.4725275,994.4322344,-0.185852,0.031555,0.995361,6.116028,-5.106659,-1.981354,1.0,1.0,1.0,1.0,1.0,60.0,2
1.226541589,0.748726822,0.70504493,1.420339311,1.307464201,0.619483503,0.467813521,0.790449575,1.417264668,0.59603856,0.90013431,0.810893451,0.881690456,0.263577377,0.02347652,0.708732693,0.089840144,-0.475952086,-0.455284894,0.32479839,772.8205128,782.4908425,787.7289377,784.9084249,741.3919414,-0.183655,0.032043,0.992371,5.465546,-3.058014,-1.764526,1.0,1.0,1.0,1.0,1.0,60.0,2
1.104879678,0.530439911,0.439585078,1.364328143,1.038588533,0.385364268,0.277036043,0.780010369,1.225208687,0.505407072,0.787253592,0.931614869,0.739133411,0.227479772,0.07769041,0.754319164,0.124623982,-0.423582752,-0.421982942,0.373305127,777.6556777,784.1025641,795.7875458,767.1794872,796.1904762,-0.181824,0.026184,1.008118,6.168365,-2.968292,-1.495361,1.0,1.0,1.0,1.0,1.0,60.0,2
0.890002108,0.394499306,0.54904575,1.080370039,0.794672038,0.291566972,0.256484482,0.596166018,1.31950842,0.532745467,0.720530072,0.939874423,0.68927749,0.151718906,0.151054795,0.723522428,0.13311534,-0.427914267,-0.362578545,0.42079415,778.0586081,799.4139194,782.0879121,757.5091575,872.7472527,-0.178406,0.035889,0.993835,5.398254,-3.701019,-1.480408,1.0,1.0,1.0,1.0,1.0,60.0,2
0.737267852,0.28897169,0.542617306,0.65971367,0.63335693,0.031835821,0.058343117,0.645412814,1.283539621,0.548024358,0.554926995,1.05696838,0.657296179,0.150194236,0.182987707,0.730264384,0.086053742,-0.423796276,-0.335867186,0.389166897,789.3406593,788.9377289,774.4322344,710.7692308,689.010989,-0.183655,0.03186,0.998047,5.226288,-4.000092,-1.420593,1.0,1.0,1.0,1.0,1.0,60.0,2
0.594899741,0.565139262,0.625843235,0.555453226,0.588886958,0.017627197,0.110299726,0.683751705,1.272203815,0.501854864,0.435302204,1.103790504,0.601705844,0.09321031,0.150866663,0.666280443,0.043750303,-0.39111108,-0.325053974,0.312451353,785.3113553,795.3846154,770.4029304,847.7655678,821.1721612,-0.181091,0.036133,0.99408,5.764618,-2.579498,-2.714081,1.0,1.0,1.0,1.0,1.0,60.0,2
0.577260977,0.723193928,0.790669838,1.239681795,0.673889754,0.149261913,0.231314493,0.975572013,1.254783382,0.534588304,0.673141084,1.132559109,0.57586356,0.060093527,0.168063681,0.649174712,0.100878451,-0.43500168,-0.351967838,0.350613283,776.4468864,772.014652,772.014652,714.3956044,777.6556777,-0.182373,0.029724,0.998169,5.607605,-3.401947,-1.958923,1.0,1.0,1.0,1.0,1.0,60.0,2
1.561744532,0.818807591,0.852529612,1.623462946,0.803592543,0.193971697,0.377388729,1.050060935,1.103187851,0.353689072,0.819068273,1.049476367,0.681395302,0.068653368,0.207256135,0.634572862,0.136480615,-0.496402975,-0.391927155,0.338330033,950.9157509,871.5384615,864.6886447,958.5714286,676.1172161,-0.193359,0.036377,0.992554,5.824432,-5.607605,-1.555176,1.0,1.0,1.0,1.0,1.0,60.0,2
1.721490418,0.782134517,0.878662811,1.801246357,0.846976651,0.194156806,0.422992461,1.139557083,1.092148816,0.296530106,0.818322135,1.03983188,0.760588608,0.055705812,0.265698121,0.699264624,0.200655448,-0.541413189,-0.430235898,0.326180308,640.6593407,772.4175824,772.014652,814.3223443,858.2417582,-0.195496,0.031128,0.987549,6.280518,-3.04306,-1.786957,1.0,1.0,1.0,1.0,1.0,60.0,2
2.009447228,0.778964651,0.626532153,1.933000193,0.884349438,0.089576133,0.495550069,1.041898667,1.058120542,0.13441482,0.792316252,0.701820816,0.892552735,0.148328757,0.312235988,0.772139998,0.168030733,-0.538049879,-0.557821286,0.198565729,720.4395604,782.8937729,788.5347985,734.9450549,883.6263736,-0.194458,0.036499,0.992859,5.600128,-3.618774,-1.75705,1.0,1.0,1.0,1.0,1.0,60.0,2
2.102424051,0.748104167,0.626532153,1.933000193,0.914840912,0.189136235,0.495550069,1.041898667,1.057251921,0.475134852,0.792316252,0.701820816,0.941819403,0.128444441,0.312235988,0.772139998,0.192618393,-0.188920832,-0.557821286,0.198565729,734.5421245,803.8461538,793.3699634,776.8498168,842.5274725,-0.199768,0.033081,0.992676,5.966492,-4.755249,-1.861725,1.0,1.0,1.0,1.0,1.0,60.0,2
1.431886421,0.641384251,0.863621832,1.82555574,0.710609143,0.544709926,0.448866384,0.944088012,0.900448273,0.548369814,0.471957485,0.668975633,0.746561952,0.018097572,0.243851541,0.961529999,0.103321503,-0.162064331,0.220961612,0.835368362,799.8168498,795.3846154,778.0586081,737.3626374,855.4212454,-0.192932,0.030334,0.998474,5.764618,-4.201965,-1.61499,1.0,1.0,1.0,1.0,1.0,60.0,2
1.755146853,0.594891722,0.847664433,1.622925754,0.839556469,0.462803597,0.432436243,0.777612277,1.157614379,0.643388753,0.494917274,0.715459668,0.657435053,0.029717643,0.228022795,0.966385051,0.213147151,-0.147425017,0.218590849,0.779890874,769.1941392,788.1318681,814.7252747,740.989011,788.9377289,-0.19104,0.034119,0.994507,5.218811,-4.388885,-2.527161,1.0,1.0,1.0,1.0,1.0,60.0,2
1.651468818,0.487792933,0.799380833,1.447142891,0.82529489,0.422810719,0.48354932,0.675909696,1.165348345,0.615090696,0.378428822,0.820139589,0.669795211,-0.042552312,0.105450042,0.902491643,0.226870714,-0.223942263,0.243780196,0.686366878,771.2087912,798.2051282,809.0842491,805.0549451,753.4798535,-0.194214,0.030334,0.992981,5.241241,-4.63562,-1.846771,1.0,1.0,1.0,1.0,1.0,60.0,2
1.700196922,0.308419432,1.215147259,1.168249766,0.96427202,0.135028026,0.492688571,0.448506147,1.191420084,0.526333389,0.368345667,0.871283077,0.684418104,-0.032896393,0.202184363,0.800081841,0.257424121,-0.272460396,0.096330625,0.625338016,778.8644689,801.025641,802.2344322,762.7472527,669.6703297,-0.188843,0.035461,0.990356,6.108551,-3.850555,-1.75705,1.0,1.0,1.0,1.0,1.0,60.0,2
1.489526325,0.625454196,1.389673631,1.155090885,1.0901085,0.311513988,0.765408691,0.595281922,1.233371762,0.651470799,0.523270567,1.021961275,0.780890211,-0.019062028,0.306546747,0.656970492,0.198500579,-0.396924776,-0.188293017,0.511343965,757.1062271,799.010989,790.1465201,731.3186813,763.956044,-0.189026,0.029114,0.99585,5.375824,-3.805695,-2.071075,1.0,1.0,1.0,1.0,1.0,60.0,2
1.448047128,0.800989113,1.357474861,1.184557141,1.147843612,0.390264664,0.8625963,0.785648993,1.16974414,0.644389142,0.710283691,1.070057804,0.802166172,0.053660948,0.305076901,0.630957451,0.1648702,-0.415249743,-0.264771965,0.491429102,763.1501832,795.7875458,780.0732601,803.040293,940.4395604,-0.188049,0.031433,0.995239,5.585175,-4.710388,-1.816864,1.0,1.0,1.0,1.0,1.0,60.0,2
1.201637254,0.823597298,1.34349585,1.068657617,1.021528849,0.415582916,0.852055116,0.791264561,1.255027244,0.668637932,0.938118868,1.304008002,0.793385964,0.079026925,0.343078952,0.690777721,0.094289645,-0.461861157,-0.374369801,0.36194408,766.3736264,799.4139194,800.6227106,786.9230769,753.0769231,-0.188599,0.028809,1.0,5.480499,-3.887939,-2.826233,1.0,1.0,1.0,1.0,1.0,60.0,2
1.318199411,0.664783136,1.240208158,1.171785453,0.910349934,0.316225168,0.752050084,0.735619052,1.449751851,0.774142155,1.092770569,1.424332667,0.696046095,0.156235614,0.34850519,0.773920151,0.097570659,-0.499673156,-0.378455832,0.378180756,761.5384615,793.7728938,796.1904762,778.8644689,803.040293,-0.183533,0.03064,1.009094,5.869293,-3.177643,-1.315918,1.0,1.0,1.0,1.0,1.0,60.0,2
1.323309507,0.446583734,1.112260552,1.177129344,0.822740246,0.412841501,0.471462658,0.6466918,1.449751851,0.747162884,1.092770569,1.429578971,0.591638488,0.123825022,0.322726512,0.779486403,0.085633577,-0.516664216,-0.299605481,0.354514351,775.2380952,789.3406593,789.7435897,776.043956,778.8644689,-0.183838,0.03241,0.992188,5.420685,-3.439331,-1.629944,1.0,1.0,1.0,1.0,1.0,60.0,2
1.345878505,0.512575724,0.837697102,1.203824,0.860904037,0.405553873,0.142122164,0.589413138,1.427097249,0.747162884,1.015911015,1.397862029,0.501040464,0.164270643,0.188908099,0.728869517,0.085406355,-0.50034853,-0.248912024,0.357414576,780.4761905,792.1611722,787.7289377,802.6373626,951.7216117,-0.188721,0.028503,0.9953,5.547791,-4.134674,-1.749573,1.0,1.0,1.0,1.0,1.0,60.0,2
1.122061273,0.320567136,0.652416148,1.009515996,0.759338063,0.279241262,0.03524163,0.533763526,1.387812584,0.419520972,0.864239362,1.276764477,0.567868479,0.141881483,0.193765358,0.775579478,0.051444924,-0.513266307,-0.231345929,0.24504648,749.8534799,796.996337,786.5201465,791.7582418,892.8937729,-0.184998,0.03363,0.990967,5.697327,-3.865509,-2.235565,1.0,1.0,1.0,1.0,1.0,60.0,2
0.946036045,0.311047957,0.543778669,0.8321441,0.626992302,0.178954735,0.168539326,0.491927098,0.995397792,0.573099101,0.64932723,0.828937794,0.658790396,0.163656672,0.217094733,0.809535161,0.029992666,-0.47922144,-0.269629276,0.231017998,819.1575092,759.5238095,774.8351648,765.1648352,835.6776557,-0.18335,0.035645,0.988403,5.046844,-3.835602,-2.257996,1.0,1.0,1.0,1.0,1.0,60.0,2
0.969095073,1.295980589,0.735302708,0.696351933,0.638434907,1.056647721,0.516984229,0.592844967,0.989049666,1.198247203,0.953336277,0.808009679,0.69149885,0.260744525,0.31438257,0.907707889,0.013134198,-0.485184182,-0.26744822,0.188675076,763.956044,770.4029304,789.7435897,752.2710623,744.6153846,-0.177856,0.033936,0.996948,5.547791,-4.859924,-2.100983,1.0,1.0,1.0,1.0,1.0,60.0,2
0.363819086,1.443222432,0.891022866,0.550780607,0.58162926,1.166730326,0.684923987,0.708832913,0.938186171,1.198247203,0.952556858,1.026093727,0.638031085,0.333877228,0.267112599,0.85754364,0.030242931,-0.420420455,-0.328378993,0.132196309,789.3406593,790.952381,794.5787546,785.7142857,1160.03663,-0.187012,0.033569,0.993103,5.136566,-3.588867,-2.093506,1.0,1.0,1.0,1.0,1.0,60.0,2
1.131523054,1.455846107,0.87889634,0.438761827,0.839544529,1.171888153,0.819396526,0.823149536,1.164610503,1.204909788,0.949999418,1.283614002,0.866462827,0.330132972,0.307373691,0.767277658,-0.012362329,-0.514920341,-0.289035837,0.29490382,753.8827839,800.2197802,782.0879121,702.7106227,610.4395604,-0.183228,0.033142,1.003906,5.779572,-3.416901,-1.465454,1.0,1.0,1.0,1.0,1.0,60.0,2
1.132147983,0.917304597,0.700180397,0.702579902,1.064390177,0.460481376,0.566281922,0.955153324,1.254816842,0.953852678,0.885481347,1.297736786,0.812929716,0.179181617,0.284971757,0.719320489,-0.040068392,-0.589650769,-0.329088212,0.353163302,782.0879121,800.2197802,776.043956,719.2307692,627.3626374,-0.182251,0.035156,0.998718,5.570221,-4.187012,-1.674805,1.0,1.0,1.0,1.0,1.0,60.0,2
1.129994711,0.979073511,0.704311203,0.856996285,1.110844521,0.826481375,0.523470417,1.010803661,1.254816842,1.022805202,0.870984475,1.297736786,0.785306195,-0.022123185,0.270608942,0.69089956,-0.057839175,-0.5706287,-0.334892184,0.393794236,788.9377289,793.7728938,786.9230769,740.5860806,773.2234432,-0.180725,0.031616,0.992737,5.099182,-4.9646,-1.77948,1.0,1.0,1.0,1.0,1.0,60.0,2
1.129118951,1.380629861,0.817018345,0.996944231,1.213096536,1.167870752,0.381757915,1.092527835,1.19065607,0.927697226,0.63613034,1.167064326,0.731064319,-0.035769345,0.223594867,0.648652107,-0.086137548,-0.509826089,-0.393135407,0.425226166,784.1025641,790.952381,798.2051282,815.5311355,762.7472527,-0.181763,0.033936,0.998108,5.667419,-3.327179,-2.265472,1.0,1.0,1.0,1.0,1.0,60.0,2
1.152689093,1.350469474,0.743272334,1.571925382,1.316860381,1.148629363,0.298211439,1.082625393,0.995310263,0.891605526,0.572952555,0.976517657,0.731786838,-0.061203853,0.156054167,0.732305301,-0.13254073,-0.522810854,-0.49540163,0.452005554,772.4175824,786.5201465,775.2380952,770.0,758.3150183,-0.18689,0.033813,0.99115,5.85434,-3.125305,-1.9664,1.0,1.0,1.0,1.0,1.0,60.0,2
1.669847634,1.37531178,1.007315957,1.719240168,1.208301766,1.080682331,0.431143903,0.709499978,1.161954832,0.891605526,0.44412868,0.736736245,0.880046222,0.03339933,0.098789851,0.692588596,-0.189281837,-0.452052916,-0.629607311,0.382293752,786.5201465,788.9377289,782.4908425,749.4505495,738.1684982,-0.184204,0.035339,0.99823,5.936584,-3.947754,-1.570129,1.0,1.0,1.0,1.0,1.0,60.0,2
1.422965065,0.758855272,0.904269293,1.543431531,1.008927606,0.086704652,0.317802236,0.592148358,1.161954832,0.441243275,0.448392251,0.779594331,0.759787052,0.138052377,0.139971163,0.65899096,-0.134581047,-0.549301875,-0.609619074,0.379711011,791.3553114,787.7289377,798.6080586,823.992674,975.8974359,-0.186279,0.03241,0.996155,5.644989,-4.650574,-1.652374,1.0,1.0,1.0,1.0,1.0,60.0,2
1.200678753,0.732947817,1.074547126,1.386787158,0.884627133,-0.002641877,0.468991859,0.467019715,1.161954832,0.244077262,0.422941532,0.830771768,0.712169749,0.183117791,0.086143698,0.585196281,-0.054925322,-0.5441455,-0.482518271,0.335754391,817.5457875,807.8754579,787.7289377,848.1684982,838.0952381,-0.16748,0.043091,1.014404,0.852356,13.286285,8.254395,1.0,1.0,1.0,1.0,1.0,60.0,2
1.120513603,0.619509312,0.944075797,1.36463742,0.591140698,0.028167583,0.309753662,0.837038846,0.847396421,0.271114537,0.333359917,0.764245524,0.698091564,0.268543598,0.227588757,0.776633492,0.193575795,-0.543221549,-0.36675808,0.491406609,749.8534799,771.2087912,823.1868132,749.8534799,838.4981685,-0.217163,0.033936,0.987,6.557159,-3.895416,-2.901001,1.0,1.0,1.0,1.0,1.0,60.0,2
1.49690512,0.898002282,1.08093982,1.527609381,0.715051393,0.264931124,0.485636825,1.131800888,0.860488839,0.544530703,0.524937519,0.742488914,0.740317605,0.305455293,0.222460518,0.844170754,0.255756603,-0.443733231,-0.318373348,0.625287592,648.3150183,802.6373626,964.2124542,961.7948718,697.8754579,-0.114136,0.094299,1.055542,-5.824432,11.065674,81.90094,1.0,1.0,1.0,1.0,1.0,60.0,2
1.700423414,1.178124292,0.966927737,1.671544377,0.828649702,0.565516567,0.395629962,1.302035669,0.847866812,0.642753956,0.482208279,0.713715631,0.788715423,0.391865095,0.302421176,0.96760189,0.330541768,-0.376806517,-0.324884164,0.757250347,880.4029304,786.9230769,770.4029304,728.0952381,811.0989011,-0.225525,0.099365,0.990417,2.497253,-12.531128,-9.607697,1.0,1.0,1.0,1.0,1.0,60.0,2
1.885164652,1.314305981,1.157019415,1.712638281,0.958312537,0.70964848,0.617357648,1.46586518,0.829900003,0.642665072,0.482208279,0.485827761,0.747040751,0.405721869,0.182017939,0.938728616,0.22427875,-0.388881946,-0.38161751,0.845347802,788.9377289,837.6923077,684.981685,838.9010989,970.6593407,-0.160522,0.068604,0.993591,7.768402,-9.480591,-25.271606,1.0,1.0,1.0,1.0,1.0,60.0,2
1.408650714,1.414437561,1.464990473,1.561781743,1.131632098,0.934465663,0.900571909,0.980311137,1.046194928,0.795240504,0.723416185,1.271286559,0.93603706,0.106639189,0.216511932,0.918456651,0.660937401,-0.30498096,-0.351081723,0.576688132,788.1318681,794.5787546,772.8205128,778.4615385,872.3443223,0.054993,-0.032959,1.008362,4.942169,-0.628052,-5.435638,1.0,1.0,1.0,1.0,1.0,90.0,2
1.128568897,0.42627959,1.527345772,1.128892931,0.849923247,0.113170644,0.830444696,1.002695908,1.212957641,0.388869248,1.077644088,1.260248752,0.776231362,0.162031589,0.374551142,0.9593838,0.405820215,-0.638318015,-0.315653135,0.544411374,794.981685,791.3553114,788.1318681,795.7875458,675.3113553,0.049072,-0.003662,1.007263,5.600128,-4.515991,-2.093506,1.0,1.0,1.0,1.0,1.0,90.0,2
1.033400751,1.048366772,1.600108917,1.046915551,0.749491947,0.492997394,0.931832352,0.93577803,1.179285061,0.753496822,1.077644088,1.20674362,0.824888056,0.251713704,0.232308202,1.025391841,0.443152674,-0.530176999,-0.448779174,0.572513186,793.3699634,785.7142857,772.4175824,779.6703297,328.7912088,0.066589,-0.000854,1.013,5.121613,-4.762726,-1.091614,1.0,1.0,1.0,1.0,1.0,90.0,2
1.000154211,1.166848354,1.361773979,1.259849616,0.501084872,0.602136647,0.627809658,0.828579357,0.949174501,0.753496822,0.775399825,1.029598687,0.848676076,0.281277765,0.076621409,0.980731147,0.412849047,-0.431218078,-0.355854448,0.576351271,784.5054945,821.978022,722.4542125,755.0915751,526.2271062,0.054504,0.004028,1.009399,5.495453,-3.005676,-3.04306,1.0,1.0,1.0,1.0,1.0,90.0,2
1.339176635,1.308090298,1.415511324,1.499111992,0.721664851,0.69409165,0.780297452,1.001160367,1.09479456,0.785068739,1.075971312,1.214562107,0.86086843,0.239648395,0.391256463,0.964799965,0.400316264,-0.35596217,-0.019438937,0.58627509,806.6666667,794.5787546,741.3919414,767.5824176,888.0586081,0.072021,0.002808,1.010132,5.390778,-0.70282,-2.190704,1.0,1.0,1.0,1.0,1.0,90.0,2
1.360909831,1.30007966,1.496129295,1.542408265,0.948492459,0.599970015,0.90021403,1.07740852,1.111509406,0.495816254,1.174703384,1.213059043,0.80507678,0.097866713,0.721056303,0.86221498,0.391936769,-0.409331114,0.281913603,0.493252638,797.3992674,769.5970696,790.952381,791.7582418,474.6520147,0.062561,0.005493,1.009766,5.981445,-3.820648,-1.286011,1.0,1.0,1.0,1.0,1.0,90.0,2
1.294638163,1.319102833,1.756365402,1.454208846,1.008226788,0.610840646,0.9626107,1.09346464,1.113138351,1.02538068,1.180499068,1.215304942,0.762957664,0.144320273,0.757863566,0.806987691,0.375441161,-0.337290941,0.293449837,0.54408593,780.4761905,788.9377289,661.2087912,794.1758242,448.8644689,0.090332,0.004272,0.999512,4.867401,-4.000092,0.104675,1.0,1.0,1.0,1.0,1.0,90.0,2
1.009733355,1.385582185,2.227882799,1.303988726,0.929528772,0.671703125,1.044344205,1.022183035,0.900994065,1.133419021,1.294688555,1.074553793,0.676162197,0.314505682,0.641911729,0.728247951,0.404073386,-0.214718031,0.077781308,0.614347599,853.003663,798.6080586,705.5311355,826.007326,1245.457875,0.079285,-0.000183,1.006348,6.482391,-7.080536,-3.633728,1.0,1.0,1.0,1.0,1.0,90.0,2
0.931781628,1.269994379,2.206463798,1.213406111,0.708553143,0.647070198,0.893550537,0.796689858,0.806428715,1.134547206,1.04929048,0.968970601,0.566299198,0.417293285,0.251830689,0.700136225,0.336450853,-0.204049634,-0.374872418,0.643181366,826.007326,785.3113553,748.2417582,833.6630037,608.4249084,0.07196,0.004578,1.011475,5.637512,-3.850555,-1.742096,1.0,1.0,1.0,1.0,1.0,90.0,2
1.223407373,1.208296708,2.161203667,1.240948637,0.774842942,0.671904281,0.910880081,0.836440936,0.760145926,1.140612669,1.051584762,1.051354558,0.76399544,0.485884016,0.263866104,0.832907277,0.567070628,-0.296637007,-0.312912776,0.683788477,778.0586081,798.6080586,749.8534799,799.8168498,388.021978,0.062012,0.001221,1.004944,4.98703,1.435547,-6.945953,1.0,1.0,1.0,1.0,1.0,90.0,2
1.322533511,1.043672723,1.665811415,1.482090638,0.759913783,0.728679208,1.202925877,0.936065115,1.021153784,0.762955093,0.899333546,1.183046456,0.945772369,0.342267541,0.305458388,1.058285199,0.670514385,-0.265052966,-0.196439549,0.64699901,811.9047619,776.4468864,798.2051282,812.7106227,859.8534799,0.11792,-0.0177,1.077087,1.390686,2.347717,4.837494,1.0,1.0,1.0,1.0,1.0,90.0,2
1.51777979,1.087257798,1.543822422,1.565047105,0.942475253,0.724818495,1.179657263,0.977346897,1.147791354,0.687352657,0.902064292,1.159172252,0.97394916,0.172191302,0.313324934,1.079475725,0.653112029,-0.249548841,-0.197787293,0.740851656,767.985348,779.6703297,770.4029304,776.8498168,568.1318681,0.040405,-0.059998,1.011414,1.59256,-8.239441,1.128998,1.0,1.0,1.0,1.0,1.0,90.0,2
1.614031664,1.113760125,1.45094319,1.624990469,1.025845866,0.702173058,1.104011007,0.982556578,1.173113709,0.688138663,0.814189918,1.1668752,0.970836694,0.148745161,0.258526688,1.088400385,0.632441608,-0.299248816,-0.199666521,0.850160257,799.8168498,743.003663,726.8864469,806.6666667,1068.571429,0.042297,-0.05249,1.013672,6.848755,-6.145935,1.9664,1.0,1.0,1.0,1.0,1.0,90.0,2
1.577030239,1.346751342,1.195473376,1.490417677,1.076755665,0.527100408,0.680762456,1.012489937,1.371526751,0.5265019,0.810336248,1.439560971,0.964958654,0.13011923,0.312072623,1.117415811,0.590936853,-0.447947106,-0.260469619,0.902027714,842.1245421,833.6630037,797.8021978,792.5641026,1205.164835,0.042542,-0.06427,1.020264,4.164581,-4.545898,-5.428162,1.0,1.0,1.0,1.0,1.0,90.0,2
1.36387043,1.6111141,1.273175184,1.40694603,0.954616611,0.433566096,0.866000515,0.986661017,1.330924309,0.567434583,0.509038253,1.439560971,0.91162553,0.225096596,0.387044845,1.066845403,0.571685949,-0.452579649,-0.244260547,0.888799583,801.4285714,799.4139194,816.3369963,822.3809524,751.4652015,0.055603,-0.054138,1.007996,3.521576,-2.056122,-0.067291,1.0,1.0,1.0,1.0,1.0,90.0,2
1.404435562,1.696191585,1.585160345,1.317565269,1.070894987,0.680202486,1.323323424,1.093856846,1.35536063,0.99802951,0.814437585,1.439560971,1.01184781,0.383474761,0.155038685,1.013728067,0.683823424,-0.247477444,-0.186263658,0.900082072,739.3772894,799.4139194,817.1428571,732.1245421,957.3626374,0.05188,-0.062317,1.00708,1.914062,-1.77948,-1.644897,1.0,1.0,1.0,1.0,1.0,90.0,2
1.524359814,1.654274489,1.748412258,1.335849726,1.15026966,0.877273842,1.21388567,1.037660196,1.303337566,1.028471994,0.886879258,1.257644763,1.013761974,0.403829211,0.096816865,0.925182484,0.699422147,-0.218592939,-0.172244067,0.802044722,820.7692308,807.8754579,790.952381,813.9194139,1237.399267,0.074829,-0.056396,1.010498,3.955231,-6.527252,-3.686066,1.0,1.0,1.0,1.0,1.0,90.0,2
1.219202474,1.196046299,1.634348588,1.21441541,1.030408577,0.791562981,0.791317672,1.036916669,1.248646353,0.96050118,0.907312236,1.357701708,0.785759952,0.135774226,0.037438928,0.944191802,0.602561082,-0.364183571,-0.13065407,0.581124349,776.8498168,784.5054945,782.4908425,754.6886447,551.6117216,0.03302,-0.078674,1.005249,1.345825,-5.547791,-7.65625,1.0,1.0,1.0,1.0,1.0,85.0,2
1.266116535,0.895977741,1.376112642,1.098429671,1.310809889,0.675198097,0.71064353,1.076096633,1.179448963,0.692734719,0.789951492,1.274626138,0.812058136,0.080414202,0.065203331,0.870610339,0.602025365,-0.378491335,-0.223164617,0.6061812,755.8974359,797.8021978,840.9157509,773.6263736,1032.307692,0.091064,-0.038147,1.014343,8.433838,-4.411316,-4.209442,1.0,1.0,1.0,1.0,1.0,85.0,2
1.923193947,0.769858903,1.255352946,1.523524959,1.546858663,0.604531162,0.914058113,0.627599059,1.185710872,0.625367177,0.279737364,0.87118779,0.983833918,0.069612287,0.104687739,0.997126925,0.731193226,-0.280461879,-0.719618218,0.909550331,812.3076923,794.1758242,767.1794872,780.4761905,408.5714286,0.099854,-0.062195,1.016724,3.095398,-2.66922,-1.4505,1.0,1.0,1.0,1.0,1.0,85.0,2
2.011352022,0.779352892,1.758155719,1.51563357,1.198204024,0.465312305,0.401063813,0.684463338,0.903986662,0.685406515,0.427695055,0.897834914,0.948250552,0.139278509,0.228418478,1.029055443,0.735958237,-0.162133155,-0.03826172,0.900793493,786.9230769,789.3406593,772.014652,780.8791209,730.1098901,0.110779,-0.072754,1.010864,8.471222,-2.003784,-11.581573,1.0,1.0,1.0,1.0,1.0,85.0,2
1.73238095,0.855502008,1.583291049,1.471505604,1.347746181,0.620011966,0.743303888,0.925373294,1.257498033,0.818896868,0.629660559,1.179871692,1.018566947,0.195240563,0.158358017,1.103064938,0.602895117,-0.0736975,-0.151201971,0.877249074,821.978022,779.2673993,780.8791209,840.5128205,1287.362637,0.058838,-0.061951,1.030701,1.585083,-0.142059,3.902893,1.0,1.0,1.0,1.0,1.0,85.0,2
1.73238095,1.179526845,1.478684842,1.498704143,1.347746181,0.915617409,0.75564946,0.987312814,1.257498033,0.94201492,0.726285158,1.177365139,1.018566947,0.264700613,0.191390532,1.164171192,0.602895117,-0.066785513,-0.221304369,0.831484151,776.4468864,801.025641,954.5421245,755.4945055,354.1758242,0.112854,-0.081299,0.990662,6.549683,-11.544189,-6.048737,1.0,1.0,1.0,1.0,1.0,85.0,2
1.688569969,1.393114483,1.371992527,1.369076862,1.393535352,1.047621071,0.851629794,1.19941781,1.257498033,0.91592125,0.758619997,1.480481131,1.027639917,0.271258312,0.212678779,1.218814645,0.635084268,-0.136069891,-0.267490327,0.85411239,739.7802198,784.1025641,790.952381,727.2893773,480.2930403,0.077087,-0.111206,0.990967,2.489777,-4.299164,-0.72525,1.0,1.0,1.0,1.0,1.0,85.0,2
1.774322458,1.452058706,1.326774377,1.335833618,0.868778062,1.044565053,0.820104043,1.103160357,1.344576856,0.872373419,0.726934465,1.381697851,1.25618837,0.278110788,0.283212068,1.195750793,1.204247017,-0.185510994,-0.340805186,1.208156376,784.9084249,723.6630037,944.8717949,754.2857143,1301.062271,0.100403,-0.092529,0.987732,1.457977,-4.530945,-1.622467,1.0,1.0,1.0,1.0,1.0,85.0,2
1.594512048,1.684905885,1.458964482,1.140738829,0.827088265,0.849792033,0.879727081,0.950007621,1.344576856,0.862188501,0.726934465,1.381697851,1.114173042,0.258088918,0.356469131,1.164973904,1.133030745,-0.217875618,-0.245626382,1.179075185,801.4285714,813.5164835,873.5531136,747.4358974,345.7142857,0.071716,-0.038635,1.014648,5.031891,-2.115936,0.007477,1.0,1.0,1.0,1.0,1.0,85.0,2
1.579808132,1.840120419,1.458964482,1.104743511,0.875339211,0.638006406,0.879727081,0.961495826,1.382350653,0.76239604,0.726934465,1.431260839,1.097494756,0.286543259,0.356469131,1.153360406,1.152627714,-0.196208068,-0.245626382,1.199218375,748.6446886,761.1355311,805.8608059,780.0732601,305.4212454,0.046997,-0.03009,1.005005,6.990814,1.914062,1.585083,1.0,1.0,1.0,1.0,1.0,85.0,2
1.403843421,1.909516065,1.458964482,1.292318935,0.922827083,0.435665463,0.879727081,0.989267366,1.344815744,0.636273688,0.726934465,1.431260839,0.984861859,0.365645494,0.356469131,1.119937884,1.131253007,-0.207045424,-0.245626382,1.140408171,809.0842491,858.6446886,1000.07326,805.0549451,1079.450549,0.078918,-0.076294,0.987061,5.906677,-3.790741,-5.8992,1.0,1.0,1.0,1.0,1.0,85.0,2
1.613744154,2.000402371,1.458964482,1.692676915,0.988164322,0.474697283,0.879727081,1.171398079,1.344815744,0.618313453,0.726934465,1.438725769,1.103498672,0.41507791,0.356469131,1.069527538,1.10821426,-0.23793829,-0.245626382,1.177798185,799.010989,882.8205128,987.985348,761.5384615,398.9010989,0.099854,-0.029175,1.007996,6.639404,-3.424377,-9.428253,1.0,1.0,1.0,1.0,1.0,85.0,2
1.552453356,1.918693634,1.458964482,1.794042867,1.140312776,0.420403293,0.879727081,1.126863815,1.100046853,0.651250343,0.726934465,1.170409171,1.177987307,0.479231645,0.356469131,1.029294879,1.036902989,-0.203095672,-0.245626382,1.129321284,770.0,846.5567766,896.9230769,782.8937729,227.2527473,0.039734,-0.061829,1.001648,4.972076,-6.003876,-2.026215,1.0,1.0,1.0,1.0,1.0,85.0,2
1.550131394,1.864684643,1.970688961,1.664648079,1.106086781,0.405618455,0.881875126,1.056788719,1.067030223,0.648276839,0.827361938,1.166592197,1.179660887,0.365721615,0.486630479,0.998147044,1.116205902,-0.181028369,-0.089857761,1.093526198,723.6630037,798.2051282,813.5164835,727.2893773,850.5860806,0.053406,-0.086487,0.981201,5.368347,-9.450684,3.925323,1.0,1.0,1.0,1.0,1.0,85.0,2
1.452567622,1.647004657,1.893996513,1.392946053,1.266426751,1.094819975,0.891745681,1.12990567,0.916502489,1.056172698,0.880610979,1.197245986,0.954290889,0.369675689,0.52524987,0.90219244,0.682806731,-0.034711897,-0.010714983,0.512922695,781.2820513,740.5860806,777.6556777,770.4029304,555.6410256,0.073364,-0.072449,1.010803,5.450592,-5.510406,-1.121521,1.0,1.0,1.0,1.0,1.0,95.0,2
1.366527783,1.895400159,1.640510777,1.513258087,1.474139066,0.985908969,0.826412813,1.139984444,1.030112355,0.858376218,0.682434525,1.183989229,0.976757457,0.328261955,0.414804984,0.841603783,0.648108819,-0.09765954,-0.081399898,0.496503317,830.03663,699.4871795,729.7069597,835.2747253,830.03663,0.047363,-0.065002,1.007751,5.31601,-7.334747,0.358887,1.0,1.0,1.0,1.0,1.0,95.0,2
1.590999419,1.982608072,1.640510777,1.736730079,1.407995716,1.072164116,0.826412813,1.271533535,1.030566298,0.857237058,0.682434525,1.231476552,0.919723011,0.345647328,0.414804984,0.820560745,0.79975794,-0.048631211,-0.081399898,0.512577491,784.1025641,792.1611722,705.9340659,743.4065934,809.8901099,0.05072,-0.065979,1.008484,6.168365,-8.508606,-2.766418,1.0,1.0,1.0,1.0,1.0,95.0,2
1.500320381,2.095564123,1.640510777,1.61288547,1.228293381,1.216439461,0.826412813,1.173155165,1.10917878,0.865110634,0.682434525,1.416681836,0.91973536,0.449880548,0.414804984,0.947086995,0.716806624,0.002123215,-0.081399898,0.361309758,788.5347985,764.7619048,839.3040293,782.4908425,743.8095238,0.068054,-0.068115,1.009888,4.882355,-3.671112,-1.166382,1.0,1.0,1.0,1.0,1.0,95.0,2
1.488624273,1.946934442,1.640510777,1.498429124,0.964143359,1.187570688,0.826412813,1.067289349,0.982670755,0.802503875,0.682434525,1.419355717,0.904445295,0.48177274,0.414804984,0.902792896,0.681591552,0.060248574,-0.081399898,0.3779671,762.7472527,762.7472527,823.5897436,756.3003663,715.6043956,0.057434,-0.076904,1.003601,5.084229,-4.403839,-1.330872,1.0,1.0,1.0,1.0,1.0,95.0,2
1.373081078,1.872729887,1.640510777,1.303411884,0.853772627,1.109832337,0.826412813,0.869852337,1.006864346,0.868837286,0.682434525,1.400947708,0.914524527,0.470656207,0.414804984,0.855506995,0.643259105,0.035906966,-0.081399898,0.396691265,773.2234432,765.1648352,815.5311355,761.9413919,840.1098901,0.069153,-0.060913,1.01239,5.487976,9.046936,-2.721558,1.0,1.0,1.0,1.0,1.0,95.0,2
1.215533839,1.319000129,1.640510777,1.233126321,0.750779734,0.918714672,0.826412813,0.881742363,0.943085759,1.095684827,0.682434525,1.272303868,0.789461795,0.599011399,0.414804984,0.733925296,0.524185363,0.224039975,-0.081399898,0.483188294,839.3040293,753.0769231,722.8571429,857.032967,1113.296703,0.090088,-0.06604,1.010559,4.351501,9.241333,5.024414,1.0,1.0,1.0,1.0,1.0,95.0,2
1.290840919,1.407587819,1.640510777,1.586126537,0.827698774,1.068137229,0.826412813,0.976855553,0.988005374,1.27818259,0.682434525,1.191482433,0.730741811,0.731497259,0.414804984,0.797884755,0.58503968,0.294149264,-0.081399898,0.509524271,651.5384615,679.3406593,821.1721612,672.8937729,707.9487179,0.067078,-0.102417,0.998535,2.766418,0.942078,-4.598236,1.0,1.0,1.0,1.0,1.0,95.0,2
1.289169296,1.500410443,1.640510777,1.674139816,0.823623144,1.159107884,0.826412813,1.068014852,0.981377286,1.276686144,0.682434525,1.191482433,0.644153467,0.832371092,0.414804984,0.836722318,0.547605619,0.387500609,-0.081399898,0.521407315,717.2161172,845.7509158,681.7582418,691.4285714,1215.238095,0.037598,-0.085571,0.991211,3.730927,5.345917,-2.64679,1.0,1.0,1.0,1.0,1.0,95.0,2
1.478485709,1.678426641,1.640510777,1.848857103,0.79590058,1.314651534,0.826412813,1.000474486,0.870516528,1.219448157,0.682434525,1.110004746,0.763776112,0.885292674,0.414804984,0.921251408,0.707308465,0.397173324,-0.081399898,0.514435121,779.2673993,792.5641026,800.6227106,784.1025641,725.2747253,0.031189,-0.060913,0.993835,5.510406,3.252411,-5.966492,1.0,1.0,1.0,1.0,1.0,95.0,2
1.55439604,1.683045282,1.640510777,1.91526926,0.836697608,1.343171813,0.826412813,0.985845077,0.870516528,1.173301264,0.682434525,1.098184718,0.803951653,0.860829383,0.414804984,0.947768104,0.754794678,0.323852643,-0.081399898,0.515598949,746.2271062,762.7472527,804.6520147,751.8681319,564.1025641,0.065674,-0.048035,1.011414,3.917847,-5.906677,-0.755157,1.0,1.0,1.0,1.0,1.0,95.0,2
1.55439604,1.683045282,1.432129283,1.91526926,0.836697608,1.343171813,0.949295793,0.985845077,0.870516528,1.173301264,0.818582633,1.098184718,0.803951653,0.860829383,0.338189941,0.947768104,0.754794678,0.323852643,0.002089068,0.515598949,792.5641026,766.7765568,840.9157509,803.4432234,818.7545788,0.057068,-0.056824,1.00885,6.572113,-6.848755,0.082245,1.0,1.0,1.0,1.0,1.0,95.0,2
1.55439604,1.666546562,1.433652011,1.91526926,0.836697608,0.976161796,1.04547744,0.985845077,0.870516528,0.560029134,0.966167812,1.098184718,0.803951653,0.340697255,0.428727004,0.947768104,0.754794678,-0.084528485,0.094511111,0.515598949,765.5677656,763.5531136,799.4139194,753.4798535,502.4542125,0.061462,-0.05481,1.010559,5.787048,-2.235565,-2.83371,1.0,1.0,1.0,1.0,1.0,95.0,2
1.382276481,1.581080293,1.602009292,1.217385234,0.944306931,0.958648996,0.947854583,1.047938718,0.89491643,0.846052856,0.966167812,1.476467293,0.959028072,0.362049767,0.430432535,0.858465511,0.433005303,-0.091266828,0.100625513,0.534862202,788.5347985,762.3443223,803.4432234,794.1758242,902.1611722,0.054443,-0.059143,1.009338,5.106659,-6.594543,-3.192596,1.0,1.0,1.0,1.0,1.0,95.0,2
1.485936229,1.540086199,1.647797012,1.031772276,0.898926872,0.886337236,0.930566027,0.821960527,0.908530762,0.882609499,0.938925637,1.075212443,0.873639562,0.451507652,0.452060864,0.822458423,0.409158088,-0.090231308,0.127993359,0.485359706,799.010989,752.6739927,820.7692308,810.6959707,1103.223443,0.050171,-0.037537,1.016296,5.727234,-2.145844,-0.328979,1.0,1.0,1.0,1.0,1.0,95.0,2
1.541415763,1.379013106,1.769226706,1.198569087,0.949654937,0.825971933,0.656388115,0.890101769,0.955818134,0.879012595,0.796987346,1.11573669,0.898724981,0.504027802,0.403875714,0.879012185,0.376965649,-0.13660178,0.088912607,0.51286034,789.7435897,742.6007326,660.0,765.970696,815.5311355,0.028198,-0.057068,1.009094,3.117828,19.140625,-0.396271,1.0,1.0,1.0,1.0,1.0,95.0,2
1.566092653,1.350029871,1.585848713,1.187885119,1.031774679,0.806897329,0.599125813,0.98714804,0.885210966,0.910531002,0.559750579,1.009768335,0.848713416,0.559539064,0.251847367,0.890527231,0.366280085,-0.157032829,0.014161523,0.490691431,807.4725275,807.0695971,676.9230769,807.8754579,487.5457875,0.046814,-0.079529,1.010925,7.992706,-3.738403,1.996307,1.0,1.0,1.0,1.0,1.0,95.0,2
1.584484258,1.749097982,1.585848713,1.336688501,1.114882693,0.89757274,0.599125813,1.093710411,0.841473619,0.861778818,0.559750579,1.024298467,0.918941077,0.722260082,0.251847367,1.000295056,0.342618353,-0.104553425,0.014161523,0.541160392,813.9194139,623.3333333,823.1868132,832.4542125,888.4615385,-0.015625,-0.097046,1.010498,3.170166,9.929199,-0.643005,1.0,1.0,1.0,1.0,1.0,95.0,2
1.376474073,1.923348043,1.585848713,1.305117283,0.964494955,1.040501536,0.599125813,1.046171027,0.886087789,0.861778818,0.559750579,1.293614769,0.741677518,0.809960751,0.251847367,0.990386302,0.445488515,-0.044583468,0.014161523,0.48184581,789.3406593,788.9377289,759.5238095,786.5201465,1059.304029,0.025574,-0.084839,1.005188,8.202057,-11.604004,-0.149536,1.0,1.0,1.0,1.0,1.0,95.0,2
1.415260295,2.163769254,1.585848713,1.346550704,0.742623578,1.1725664,0.599125813,0.9586232,1.025198018,0.73927917,0.559750579,1.294947087,0.723916108,0.952328765,0.251847367,0.977135029,0.455428776,0.038024611,0.014161523,0.432537489,751.8681319,763.1501832,808.6813187,750.2564103,554.029304,0.010925,-0.065552,1.015076,6.116028,-5.809479,-0.979462,1.0,1.0,1.0,1.0,1.0,95.0,2
1.383173544,2.163769254,1.61453368,1.243445712,0.86430349,1.1725664,0.448434469,0.756525496,1.291787271,0.73927917,0.727613282,1.299368879,0.784280679,0.952328765,0.505427397,0.886540838,0.41033112,0.038024611,-0.17970215,0.33775131,794.5787546,771.6117216,758.7179487,800.2197802,1239.010989,0.048828,-0.060913,1.014465,2.818756,4.209442,0.403748,1.0,1.0,1.0,1.0,1.0,95.0,2
1.302872957,1.229365111,1.587155022,1.096301088,0.918509442,0.718517091,0.419018753,0.643767733,1.290269198,0.822090599,0.727613282,1.297637804,0.842275539,0.352764866,0.482312444,0.802959371,0.354817708,-0.057287249,-0.180328985,0.352520849,786.9230769,821.978022,657.1794872,774.8351648,539.5238095,0.037598,-0.085327,1.008179,4.807587,0.957031,-19.073334,1.0,1.0,1.0,1.0,1.0,95.0,2
1.399359043,1.315604474,1.587155022,1.257558736,1.095888726,0.706057841,0.419018753,0.93249144,1.290269198,0.834454288,0.727613282,1.153875092,0.900549153,0.346218804,0.482312444,0.899148317,0.295486704,-0.059921132,-0.180328985,0.369205771,805.0549451,790.1465201,720.8424908,805.0549451,584.6520147,0.034668,-0.095703,1.012085,5.764618,-5.607605,-1.256104,1.0,1.0,1.0,1.0,1.0,90.0,2
1.355115289,1.31286912,1.57749932,1.258971226,1.067014702,0.561316852,0.286527391,0.951320157,1.039274162,0.603037114,0.54099206,1.076065642,0.837702781,0.323960629,0.450844334,0.874004634,0.308648066,-0.035514281,-0.176874979,0.373715758,804.6520147,786.9230769,782.0879121,811.9047619,705.5311355,0.021912,-0.085144,1.014404,7.424469,-5.398254,0.284119,1.0,1.0,1.0,1.0,1.0,90.0,2
1.388456617,1.680070911,1.57749932,1.264080661,1.056087332,1.174728762,0.286527391,0.960114573,1.041919059,1.118233753,0.54099206,1.119971001,0.797939487,0.461451932,0.450844334,0.859897625,0.305778542,0.11419765,-0.176874979,0.276763145,782.8937729,774.029304,894.9084249,791.7582418,754.2857143,-0.002991,-0.087158,1.006348,5.742188,-8.553467,-0.471039,1.0,1.0,1.0,1.0,1.0,90.0,2
1.053273232,1.470649002,1.57749932,0.913100793,0.816053814,1.009298811,0.286527391,0.562717831,0.904305853,1.118233753,0.54099206,0.927067415,0.695025787,0.320905921,0.450844334,0.626712737,0.286764794,-0.011330387,-0.176874979,0.218213603,748.6446886,733.3333333,752.2710623,780.8791209,1103.223443,0.035828,-0.08136,1.008606,7.14035,-3.91037,-2.467346,1.0,1.0,1.0,1.0,1.0,90.0,2
1.127669532,1.568766775,1.57749932,1.256534214,0.903336438,0.875721107,0.286527391,0.764836732,1.181724378,1.118233753,0.54099206,1.103899683,0.817618033,0.299900122,0.450844334,0.775877502,0.268507857,-0.102351005,-0.176874979,0.377584006,799.010989,703.9194139,733.7362637,803.4432234,641.4652015,0.015747,-0.045105,1.010071,2.377625,-5.069275,-5.256195,1.0,1.0,1.0,1.0,1.0,90.0,2
1.504974853,1.82909419,1.57749932,1.688831262,0.912983446,0.454256309,0.286527391,0.887733818,1.196366186,0.540179985,0.54099206,1.095218009,0.847153013,0.224066095,0.450844334,0.86828005,0.281271815,-0.285655271,-0.176874979,0.465884865,806.2637363,809.8901099,808.2783883,814.3223443,1154.395604,0.028442,-0.049255,1.018921,7.895508,-19.275208,-0.971985,1.0,1.0,1.0,1.0,1.0,90.0,2
1.656259684,1.971488066,1.57749932,1.779892151,0.952739891,0.378761846,0.286527391,0.904376109,1.196366186,0.907845452,0.54099206,1.064814551,0.841085063,0.419274795,0.450844334,0.90194697,0.390097901,-0.184836047,-0.176874979,0.603753172,778.0586081,741.3919414,821.1721612,805.0549451,662.014652,0.034912,-0.070374,1.009766,4.807587,0.695343,-11.252594,1.0,1.0,1.0,1.0,1.0,90.0,2
1.716894183,2.038750798,1.57749932,1.776260921,0.810224299,0.446892894,0.286527391,0.736890995,1.098962662,0.959093634,0.54099206,1.055522085,0.755023247,0.522492276,0.450844334,0.794246393,0.527472673,-0.104899245,-0.176874979,0.613892797,803.4432234,752.6739927,904.1758242,767.985348,1384.468864,0.030823,-0.042725,1.008423,5.540314,-2.34024,0.493469,1.0,1.0,1.0,1.0,1.0,90.0,2
1.591565111,1.938229904,1.57749932,1.745931865,0.780029356,0.571759937,0.286527391,0.831821876,0.758323591,0.959093634,0.54099206,0.987553944,0.68948516,0.651836073,0.450844334,0.803056938,0.591109952,0.018062685,-0.176874979,0.704701675,767.1794872,826.007326,794.981685,808.2783883,955.7509158,0.043701,-0.053894,1.015747,3.858032,-5.31601,-2.205658,1.0,1.0,1.0,1.0,1.0,90.0,2
1.528455803,1.886911622,1.57749932,1.715113201,0.774268049,0.697634933,0.286527391,0.847584558,0.871009651,0.959093634,0.54099206,0.991531519,0.798793374,0.753285343,0.450844334,0.815064791,0.582385852,0.073781821,-0.176874979,0.661424349,751.8681319,777.6556777,734.5421245,797.3992674,341.6849817,0.051758,-0.063843,1.01355,4.269257,-3.215027,-3.947754,1.0,1.0,1.0,1.0,1.0,90.0,2
1.324694381,1.536530084,1.57749932,1.813859773,0.508593078,0.814420343,0.286527391,0.843532018,0.783302702,0.724423132,0.54099206,1.005047305,0.777471762,0.459565101,0.450844334,0.790766565,0.481439783,0.043868451,-0.176874979,0.654484461,748.6446886,765.5677656,740.1831502,752.2710623,930.3663004,0.061157,-0.067261,1.013184,4.680481,-3.147736,-3.058014,1.0,1.0,1.0,1.0,1.0,90.0,2
