TimeStamp,Delta_TP9,Delta_AF7,Delta_AF8,Delta_TP10,Theta_TP9,Theta_AF7,Theta_AF8,Theta_TP10,Alpha_TP9,Alpha_AF7,Alpha_AF8,Alpha_TP10,Beta_TP9,Beta_AF7,Beta_AF8,Beta_TP10,Gamma_TP9,Gamma_AF7,Gamma_AF8,Gamma_TP10,RAW_TP9,RAW_AF7,RAW_AF8,RAW_TP10,AUX_RIGHT,Accelerometer_X,Accelerometer_Y,Accelerometer_Z,Gyro_X,Gyro_Y,Gyro_Z,HeadBandOn,HSI_TP9,HSI_AF7,HSI_AF8,HSI_TP10,Battery,Elements
2021-09-11 01:25:58.267,0.0,1.240627,0.0,0.77783203,0.0,1.022965,0.0,0.9781637,0.0,1.20208,0.0,0.3842473,0.0,0.73460615,0.0,0.63380903,0.0,0.029828979,0.0,0.13285968,904.57874,713.5897,1302.2711,791.3553,832.4542,0.21343994140625,-0.02032470703125,0.98553466796875,5.046844482421875,-3.48419189453125,-2.295379638671875,1,1.0,1.0,2.0,1.0,60.00
2021-09-11 01:25:58.787,0.0,1.240627,0.0,0.77783203,0.0,1.022965,0.0,0.9781637,0.0,1.20208,0.0,0.3842473,0.0,0.73460615,0.0,0.63380903,0.0,0.029828979,0.0,0.13285968,953.73627,744.61536,1582.3077,801.02563,1066.5568,0.2105712890625,-0.01983642578125,0.98907470703125,5.973968505859375,-3.805694580078125,-2.280426025390625,1,1.0,1.0,2.0,1.0,60.00
2021-09-11 01:25:59.125,,,,,,,,,,,,,,,,,,,,,,,,,,,,,,,,,,,,,,/muse/elements/blink
2021-09-11 01:25:59.305,0.0,1.240627,0.0,0.77783203,0.0,1.022965,0.0,0.9781637,0.0,1.20208,0.0,0.3842473,0.0,0.73460615,0.0,0.63380903,0.0,0.029828979,0.0,0.13285968,760.7326,769.19415,813.91943,747.4359,729.707,0.2081298828125,-0.01397705078125,0.99627685546875,5.7122802734375,-2.310333251953125,-0.785064697265625,1,1.0,1.0,4.0,1.0,60.00
2021-09-11 01:25:59.823,0.0,1.240627,0.0,0.9135833,0.0,1.022965,0.0,1.2834709,0.0,1.20208,0.0,1.2624241,0.0,0.73460615,0.0,0.99236536,0.0,0.029828979,0.0,0.5338579,525.42126,760.7326,0.0,703.91943,620.5128,0.18414306640625,-0.015380859375,0.9921875,5.36834716796875,-4.254302978515625,-3.170166015625,1,1.0,1.0,4.0,1.0,60.00
2021-09-11 01:26:00.246,,,,,,,,,,,,,,,,,,,,,,,,,,,,,,,,,,,,,,/muse/elements/blink
2021-09-11 01:26:00.337,0.0,1.240627,0.0,0.9135833,0.0,1.022965,0.0,1.2834709,0.0,1.20208,0.0,1.2624241,0.0,0.73460615,0.0,0.99236536,0.0,0.029828979,0.0,0.5338579,704.3223,746.63007,427.91208,783.2967,748.24176,0.192626953125,-0.009765625,0.99053955078125,9.3609619140625,-1.89910888671875,-5.323486328125,1,1.0,1.0,4.0,1.0,60.00
2021-09-11 01:26:00.855,0.0,1.240627,0.0,0.9135833,0.0,1.022965,0.0,1.2834709,0.0,1.20208,0.0,1.2624241,0.0,0.73460615,0.0,0.99236536,0.0,0.029828979,0.0,0.5338579,562.49084,772.4176,250.62271,722.0513,587.0696,0.15216064453125,0.03094482421875,1.00897216796875,4.66552734375,5.5029296875,-1.016845703125,1,1.0,1.0,2.0,1.0,60.00
2021-09-11 01:26:01.371,0.0,1.240627,0.0,0.9135833,0.0,1.022965,0.0,1.2834709,0.0,1.20208,0.0,1.2624241,0.0,0.73460615,0.0,0.99236536,0.0,0.029828979,0.0,0.5338579,819.9634,789.34064,977.1062,737.3626,890.87915,0.1080322265625,0.01922607421875,0.99114990234375,7.185211181640625,-10.3179931640625,-4.964599609375,1,1.0,1.0,4.0,1.0,60.00
2021-09-11 01:26:01.541,,,,,,,,,,,,,,,,,,,,,,,,,,,,,,,,,,,,,,/muse/elements/blink
2021-09-11 01:26:01.874,,,,,,,,,,,,,,,,,,,,,,,,,,,,,,,,,,,,,,/muse/elements/blink
2021-09-11 01:26:01.903,0.0,1.240627,0.0,0.9135833,0.0,1.022965,0.0,1.2834709,0.0,1.20208,0.0,1.2624241,0.0,0.73460615,0.0,0.99236536,0.0,0.029828979,0.0,0.5338579,987.1795,799.41394,1435.641,802.6374,914.2491,0.05999755859375,0.01910400390625,1.010986328125,1.9439697265625,1.00189208984375,2.758941650390625,1,1.0,1.0,4.0,1.0,60.00
2021-09-11 01:26:02.174,,,,,,,,,,,,,,,,,,,,,,,,,,,,,,,,,,,,,,/muse/elements/blink
2021-09-11 01:26:02.422,0.0,1.240627,0.0,0.9135833,0.0,1.022965,0.0,1.2834709,0.0,1.20208,0.0,1.2624241,0.0,0.73460615,0.0,0.99236536,0.0,0.029828979,0.0,0.5338579,720.0366,770.80585,512.9304,728.9011,537.9121,0.1065673828125,0.01513671875,0.9969482421875,7.43194580078125,-6.557159423828125,4.717864990234375,1,2.0,1.0,4.0,2.0,60.00
2021-09-11 01:26:02.936,0.0,1.240627,0.0,0.9135833,0.0,1.022965,0.0,1.2834709,0.0,1.20208,0.0,1.2624241,0.0,0.73460615,0.0,0.99236536,0.0,0.029828979,0.0,0.5338579,919.89014,778.0586,1255.5311,782.8938,1091.5385,0.1766357421875,-0.0032958984375,0.99151611328125,2.579498291015625,-4.20196533203125,-14.602203369140625,1,2.0,1.0,4.0,2.0,60.00
2021-09-11 01:26:03.005,,,,,,,,,,,,,,,,,,,,,,,,,,,,,,,,,,,,,,/muse/elements/blink
2021-09-11 01:26:03.452,0.0,1.362302,0.0,0.9135833,0.0,0.97111833,0.0,1.2834709,0.0,0.45570537,0.0,1.2624241,0.0,0.24231632,0.0,0.99236536,0.0,-0.23185737,0.0,0.5338579,911.02563,768.3883,1327.2528,788.93774,839.304,0.15203857421875,-0.0146484375,0.95501708984375,4.05242919921875,-8.501129150390625,-4.388885498046875,1,2.0,1.0,2.0,2.0,60.00
2021-09-11 01:26:03.971,0.0,1.2363895,0.0,0.9135833,0.0,0.8087866,0.0,1.2834709,0.0,0.4619086,0.0,1.2624241,0.0,0.251186,0.0,0.99236536,0.0,-0.22992165,0.0,0.5338579,738.5714,801.02563,394.8718,766.3736,643.0769,0.18048095703125,-0.06585693359375,1.0047607421875,6.6094970703125,-6.287994384765625,-2.34771728515625,1,2.0,1.0,2.0,2.0,60.00
2021-09-11 01:26:04.088,,,,,,,,,,,,,,,,,,,,,,,,,,,,,,,,,,,,,,/muse/elements/blink
2021-09-11 01:26:04.489,0.0,1.3417656,0.0,0.9135833,0.0,1.0313381,0.0,1.2834709,0.0,0.94223666,0.0,1.2624241,0.0,0.34144214,0.0,0.99236536,0.0,-0.0204093,0.0,0.5338579,812.71063,799.41394,907.8022,779.2674,770.0,0.143798828125,-0.03448486328125,0.9959716796875,11.357269287109375,-7.4169921875,1.622467041015625,1,2.0,1.0,2.0,2.0,60.00
2021-09-11 01:26:05.012,0.0,1.2060167,0.0,0.9135833,0.0,0.939469,0.0,1.2834709,0.0,0.9296974,0.0,1.2624241,0.0,0.3983369,0.0,0.99236536,0.0,-0.031091433,0.0,0.5338579,678.1319,772.8205,347.32602,766.3736,571.75824,0.16796875,-0.0135498046875,0.998291015625,5.921630859375,-5.7720947265625,0.097198486328125,1,2.0,1.0,2.0,2.0,60.00
2021-09-11 01:26:05.534,1.376909,1.1850424,0.0,0.9135833,1.181664,0.9250189,0.0,1.2834709,1.4012417,0.977458,0.0,1.2624241,0.941074,0.3827454,0.0,0.99236536,0.38282797,-0.07376843,0.0,0.5338579,686.1905,794.9817,672.49084,745.42126,768.3883,0.17828369140625,-0.01031494140625,0.99591064453125,4.71038818359375,-3.970184326171875,-3.745880126953125,1,1.0,1.0,2.0,1.0,60.00
2021-09-11 01:26:05.806,,,,,,,,,,,,,,,,,,,,,,,,,,,,,,,,,,,,,,/muse/elements/blink
2021-09-11 01:26:06.047,1.4926867,0.9076921,0.0,0.9135833,1.2528563,0.60854983,0.0,1.2834709,1.4850335,0.70079195,0.0,1.2624241,0.99770325,0.34381402,0.0,0.99236536,0.40630448,-0.3062003,0.0,0.5338579,580.6227,783.2967,178.09525,692.23444,523.4066,0.18060302734375,-0.01336669921875,0.99493408203125,4.942169189453125,-3.33465576171875,-3.63372802734375,1,1.0,1.0,2.0,1.0,60.00
2021-09-11 01:26:06.570,1.5660295,1.1615579,0.0,0.9135833,1.3135566,0.73591954,0.0,1.2834709,1.4850335,0.6218904,0.0,1.2624241,1.0234437,0.29254425,0.0,0.99236536,0.40147555,-0.25942287,0.0,0.5338579,873.1502,788.93774,1314.762,801.02563,936.4103,0.18084716796875,-0.0152587890625,0.9969482421875,5.046844482421875,-4.149627685546875,-3.09539794921875,1,1.0,1.0,2.0,1.0,60.00
2021-09-11 01:26:07.086,1.653829,0.94417423,0.0,0.9135833,1.3764538,0.5065103,0.0,1.2834709,1.4793859,0.5359097,0.0,1.2624241,1.064846,0.39305544,0.0,0.99236536,0.40524387,-0.14896603,0.0,0.5338579,695.05493,781.28204,565.31134,747.03296,703.91943,0.18426513671875,-0.0233154296875,0.99627685546875,5.301055908203125,-4.224395751953125,-3.431854248046875,1,1.0,1.0,2.0,1.0,60.00
2021-09-11 01:26:07.589,0.68783385,0.76216346,0.0,0.37221733,0.69213253,0.48600787,0.0,0.49023196,0.37300047,0.5497292,0.0,0.68383545,0.8042491,0.30170253,0.0,0.44267225,0.26643997,-0.2536298,0.0,0.5655604,791.3553,778.86444,1023.44324,784.90845,728.9011,0.18548583984375,-0.021728515625,0.9925537109375,5.944061279296875,-5.21881103515625,-2.51220703125,1,1.0,1.0,2.0,1.0,60.00
2021-09-11 01:26:08.126,0.7408163,0.46216914,0.0,0.49068138,0.90892875,0.6158705,0.0,0.68265283,0.72383344,0.4152014,0.0,0.79796547,0.830487,0.2809709,0.0,0.42650175,0.33346894,-0.26795718,0.0,0.5169849,765.16486,780.07324,924.3223,773.22345,1022.23444,0.18988037109375,-0.02581787109375,0.99676513671875,5.27862548828125,-4.269256591796875,-2.91595458984375,1,1.0,1.0,2.0,1.0,60.00
2021-09-11 01:26:08.647,0.6501323,0.44799888,0.0,0.39085302,0.9059953,0.65388936,0.0,0.6532236,0.9852782,0.4304236,0.0,0.68842226,0.779086,0.22436121,0.0,0.4889456,0.35609162,-0.3018774,0.0,0.42220664,639.85345,776.4469,470.6227,738.97437,697.0696,0.19073486328125,-0.02789306640625,0.994873046875,5.704803466796875,-3.805694580078125,-2.1533203125,1,1.0,1.0,2.0,1.0,60.00
2021-09-11 01:26:09.150,0.79771346,0.4369366,0.0,0.42648387,0.89411116,0.5803151,0.0,0.61635256,1.138139,0.44024307,0.0,0.82988286,0.74882513,0.25608432,0.0,0.6428524,0.38743377,-0.21416654,0.0,0.40658227,870.32965,794.9817,1466.2638,791.3553,903.7729,0.19744873046875,-0.0107421875,0.99371337890625,8.50860595703125,-5.30853271484375,-2.609405517578125,1,1.0,1.0,2.0,1.0,60.00
2021-09-11 01:26:09.665,0.89989716,0.32737774,0.0,0.41467276,0.65483785,0.1098937,0.0,0.4022396,1.1506064,0.42179972,0.0,0.8044403,0.6454635,0.19625936,0.0,0.682897,0.35694128,-0.22623023,0.0,0.45264488,895.31134,764.35895,1159.2307,842.52747,998.86444,0.197265625,-0.00567626953125,0.99359130859375,5.6524658203125,-3.94775390625,-1.48040771484375,1,1.0,1.0,2.0,1.0,60.00
2021-09-11 01:26:09.714,,,,,,,,,,,,,,,,,,,,,,,,,,,,,,,,,,,,,,/muse/elements/blink
2021-09-11 01:26:09.891,,,,,,,,,,,,,,,,,,,,,,,,,,,,,,,,,,,,,,/muse/elements/blink
2021-09-11 01:26:10.173,1.0441225,0.7152285,0.0,0.54684305,0.6058772,0.103180625,0.0,0.38105515,1.095795,0.29205802,0.0,0.747629,0.6544688,0.120004244,0.0,0.7164292,0.36258417,-0.24266924,0.0,0.55614865,666.04395,784.90845,172.45421,725.2747,804.2491,0.189697265625,-0.0093994140625,0.99462890625,6.108551025390625,-3.0804443359375,-1.861724853515625,1,1.0,1.0,2.0,1.0,60.00
2021-09-11 01:26:10.210,,,,,,,,,,,,,,,,,,,,,,,,,,,,,,,,,,,,,,/muse/elements/blink
2021-09-11 01:26:10.681,1.0064677,0.92482495,0.0,0.62776303,0.52181923,0.2318768,0.0,0.37496257,0.9956147,-0.1439248,0.0,0.4574501,0.52489525,0.040667962,0.0,0.549878,0.30856636,-0.26719394,0.0,0.5787122,634.21246,772.01465,208.31502,731.7216,731.7216,0.19891357421875,-0.01080322265625,0.9921875,5.5328369140625,-4.089813232421875,-2.444915771484375,1,1.0,1.0,2.0,1.0,60.00
2021-09-11 01:26:11.218,0.9492816,1.0523283,0.0,0.62776303,0.5763812,0.41504848,0.0,0.37496257,0.95319784,0.08044275,0.0,0.4574501,0.5037882,-0.0063205296,0.0,0.549878,0.3120455,-0.28847525,0.0,0.5787122,895.31134,805.8608,1419.9268,820.3663,962.6007,0.21783447265625,-0.00958251953125,0.9908447265625,4.867401123046875,-3.536529541015625,-3.8580322265625,1,1.0,1.0,2.0,1.0,60.00
2021-09-11 01:26:11.760,0.057361655,0.40178657,0.0,0.20701116,0.47531644,0.15555012,0.0,0.35748962,0.64969987,0.52772534,0.0,0.5828489,0.53283894,0.31857198,0.0,0.48564652,0.23727933,-0.27470994,0.0,0.53533405,895.31134,775.2381,1566.1904,790.9524,992.8205,0.19915771484375,-0.01300048828125,0.9884033203125,4.59075927734375,-3.297271728515625,-2.714080810546875,1,1.0,1.0,2.0,1.0,60.00
2021-09-11 01:26:12.288,0.30965966,0.52633446,0.0,0.4271471,0.34548545,0.18487906,0.0,0.339669,0.7707194,0.57991683,0.0,0.7290525,0.55595475,0.34347054,0.0,0.4907219,0.22092357,-0.25085056,0.0,0.50953794,885.64105,787.72894,1130.6227,810.293,905.78754,0.20001220703125,-0.0152587890625,0.99444580078125,5.99639892578125,-3.81317138671875,-1.487884521484375,1,1.0,1.0,2.0,1.0,60.00
2021-09-11 01:26:12.316,,,,,,,,,,,,,,,,,,,,,,,,,,,,,,,,,,,,,,/muse/elements/blink
2021-09-11 01:26:12.814,0.33440885,0.61243397,0.0,0.52068454,0.5517046,0.20625308,0.0,0.47784692,0.90140164,0.5826682,0.0,0.89924216,0.58520377,0.342128,0.0,0.535076,0.20386086,-0.27359805,0.0,0.49140868,734.5421,778.0586,744.61536,776.04395,594.7253,0.19354248046875,-0.019287109375,0.99365234375,4.306640625,-3.282318115234375,-2.79632568359375,1,1.0,1.0,2.0,1.0,60.00
2021-09-11 01:26:13.360,0.43446887,0.6057078,0.0,0.5664852,0.55171674,0.15081286,0.0,0.48521882,0.9321743,0.5416824,0.0,0.9208035,0.620518,0.30421522,0.0,0.6240902,0.20741037,-0.26093993,0.0,0.39701736,843.3333,781.28204,931.978,796.5934,1011.3553,0.18768310546875,-0.0174560546875,0.99737548828125,5.00946044921875,-3.551483154296875,-2.295379638671875,1,1.0,1.0,2.0,1.0,60.00
2021-09-11 01:26:13.868,0.4602924,0.50013417,0.0,0.64502543,0.5662233,0.063242614,0.0,0.5220403,0.87412137,0.43874776,0.0,0.91299456,0.6356883,0.20322172,0.0,0.7522672,0.20726992,-0.2212625,0.0,0.32038516,907.8022,775.2381,1226.5201,811.9048,1191.4652,0.18304443359375,-0.029052734375,0.99383544921875,5.5029296875,-4.0374755859375,-1.8841552734375,1,1.0,1.0,2.0,1.0,60.00
2021-09-11 01:26:14.398,0.4291567,0.4537543,0.0,0.597421,0.3645501,0.11928641,0.0,0.31062418,0.81083494,0.42961547,0.0,0.83319926,0.63821834,0.15012062,0.0,0.75575125,0.15898043,-0.16095538,0.0,0.21584798,645.89746,787.72894,313.88278,737.76556,585.05493,0.18212890625,-0.02423095703125,0.99713134765625,6.228179931640625,-3.955230712890625,-1.15142822265625,1,1.0,1.0,2.0,1.0,60.00
2021-09-11 01:26:14.930,0.5032074,0.5232581,0.0,0.7286636,0.4358143,0.1576371,0.0,0.40619603,0.97424567,0.4754608,0.0,0.74231064,0.60333776,0.12350418,0.0,0.7696142,0.14523847,-0.10082492,0.0,0.32140422,755.09155,779.67035,628.5714,799.41394,985.9707,0.1937255859375,-0.0201416015625,0.99591064453125,6.332855224609375,-3.96270751953125,-1.861724853515625,1,1.0,1.0,2.0,1.0,60.00
2021-09-11 01:26:15.466,0.55279034,0.81264275,0.0,0.57239467,0.41900915,0.45593196,0.0,0.34983063,0.9854639,0.6162315,0.0,0.7322188,0.5604731,0.25779614,0.0,0.7320693,0.1522449,-0.039897464,0.0,0.31894138,662.8205,790.9524,400.51282,756.30035,622.9304,0.184814453125,-0.01544189453125,0.99591064453125,5.630035400390625,-3.96270751953125,-2.25799560546875,1,1.0,1.0,2.0,1.0,60.00
2021-09-11 01:26:16.017,1.0065689,0.8579272,0.0,0.89105874,0.8842515,0.58079886,0.0,0.961908,1.2027963,0.7112786,0.0,1.276324,0.7499579,0.33116698,0.0,0.82772064,0.25726047,-0.085658126,0.0,0.340478,804.65204,782.49084,1097.5824,806.26373,848.5714,0.18182373046875,-0.0179443359375,0.994384765625,5.644989013671875,-3.551483154296875,-1.876678466796875,1,1.0,1.0,2.0,1.0,60.00
2021-09-11 01:26:16.530,1.1434907,0.83889776,0.0,0.91807556,1.0025797,0.6571181,0.0,1.0776362,1.1323917,0.7112786,0.0,1.274973,0.8451919,0.3454577,0.0,0.83418685,0.3629396,-0.19660611,0.0,0.28376535,686.1905,760.7326,410.989,772.8205,785.7143,0.18780517578125,-0.01556396484375,0.99896240234375,5.301055908203125,-3.715972900390625,-1.816864013671875,1,1.0,1.0,2.0,1.0,60.00
2021-09-11 01:26:17.048,1.1276046,0.6290199,0.0,1.075207,0.994961,0.5406235,0.0,1.1687568,1.1322485,0.6870251,0.0,1.274973,0.8203039,0.29230368,0.0,0.8547526,0.384744,-0.29613167,0.0,0.31959766,879.59705,764.7619,1303.4799,839.304,850.18317,0.18048095703125,-0.01690673828125,0.99658203125,5.57769775390625,-2.94586181640625,-2.13836669921875,1,1.0,1.0,2.0,1.0,60.00
2021-09-11 01:26:17.565,0.7412475,0.98241603,0.0,0.865336,0.38400656,0.87372965,0.0,0.79582536,0.8122703,0.77008593,0.0,1.0871713,0.48169023,0.3678185,0.0,0.7246675,0.41192788,-0.21359827,0.0,0.36095756,921.50183,758.71796,1399.3773,843.3333,1093.956,0.180908203125,-0.014404296875,0.99334716796875,4.9945068359375,-3.641204833984375,-2.1533203125,1,1.0,1.0,2.0,1.0,60.00
2021-09-11 01:26:18.075,0.8538156,1.0973655,0.0,1.0200616,0.6678987,1.0327234,0.0,0.62104356,0.9040306,0.6631644,0.0,0.8452426,0.79124105,0.5448205,0.0,0.81534773,0.130048,-0.09929228,0.0,0.3714995,807.0696,764.7619,1043.1868,782.49084,762.3443,0.1793212890625,-0.01983642578125,0.99652099609375,5.45806884765625,-4.029998779296875,-2.2430419921875,1,1.0,1.0,2.0,1.0,60.00
2021-09-11 01:26:18.595,0.87381476,0.98725134,0.0,0.9467498,0.7306591,0.969008,0.0,0.6288364,0.9040306,0.76276875,0.0,0.7640754,0.91233635,0.6135901,0.0,0.74866486,0.021730443,-0.10586806,0.0,0.36908212,711.978,747.8388,413.00366,772.4176,730.9158,0.1761474609375,-0.01739501953125,1.00262451171875,5.929107666015625,-3.970184326171875,-1.667327880859375,1,1.0,1.0,2.0,1.0,60.00
2021-09-11 01:26:19.114,0.9136603,0.8114362,0.0,0.9527762,0.6736283,0.7723741,0.0,0.5944394,1.004692,0.68812543,0.0,0.7640754,0.86043,0.6361414,0.0,0.74014354,0.26398814,-0.12514578,0.0,0.371315,718.4249,776.4469,288.9011,819.9634,520.989,0.17718505859375,-0.0181884765625,0.99517822265625,6.10107421875,-3.2000732421875,-0.829925537109375,1,1.0,1.0,2.0,1.0,60.00
2021-09-11 01:26:19.399,,,,,,,,,,,,,,,,,,,,,,,,,,,,,,,,,,,,,,/muse/elements/blink
2021-09-11 01:26:19.633,0.83415335,0.8926846,0.0,0.8161791,0.4554648,0.7950996,0.0,0.42474818,0.8927925,0.6534388,0.0,0.3957484,0.78176475,0.65413755,0.0,0.62836444,0.4052636,-0.16511141,0.0,0.37570855,840.5128,793.7729,679.7436,872.3443,794.9817,0.17333984375,-0.02203369140625,0.99249267578125,4.85992431640625,-4.179534912109375,-2.145843505859375,1,1.0,1.0,2.0,1.0,60.00
2021-09-11 01:26:20.161,0.83415335,1.0700313,0.0,0.85391754,0.4554648,0.92155224,0.0,0.34774557,0.8927925,0.63436264,0.0,0.16369948,0.78176475,0.72957134,0.0,0.5913297,0.4052636,-0.18486468,0.0,0.34735793,700.293,760.32965,215.9707,795.38464,817.9487,0.17169189453125,-0.01654052734375,1.000732421875,5.988922119140625,-3.237457275390625,-1.8243408203125,1,1.0,1.0,4.0,1.0,60.00
2021-09-11 01:26:20.700,0.83415335,1.0700313,0.0,0.85391754,0.4554648,0.92155224,0.0,0.34774557,0.8927925,0.63436264,0.0,0.16369948,0.78176475,0.72957134,0.0,0.5913297,0.4052636,-0.18486468,0.0,0.34735793,798.60803,775.64105,995.2381,798.20514,863.47986,0.1800537109375,-0.0216064453125,0.99652099609375,4.90478515625,-4.71038818359375,-2.1234130859375,1,1.0,1.0,2.0,1.0,60.00
2021-09-11 01:26:21.234,0.9979125,1.0700313,0.0,0.714108,0.4989694,0.92155224,0.0,0.571371,1.4126554,0.63436264,0.0,0.34887213,0.5585394,0.72957134,0.0,0.7191449,0.4138074,-0.18486468,0.0,0.32222125,918.2784,788.5348,1474.7252,823.1868,902.1612,0.18072509765625,-0.019287109375,0.9954833984375,5.689849853515625,-3.39447021484375,-1.95892333984375,1,1.0,1.0,2.0,1.0,60.00
2021-09-11 01:26:21.766,0.87494063,0.98889977,0.0,0.6107796,0.38731995,0.45120794,0.0,0.4291331,1.4126554,0.5525242,0.0,0.37337053,0.5101828,0.34855875,0.0,0.6713032,0.36208597,-0.2876635,0.0,0.23369285,898.1319,787.326,969.85345,830.4396,1320.0,0.1787109375,-0.018798828125,0.994873046875,4.8748779296875,-4.306640625,-2.3028564453125,1,1.0,1.0,2.0,1.0,60.00
2021-09-11 01:26:22.306,0.6364379,0.81229645,0.0,0.5412954,0.2890343,0.35321164,0.0,0.2987156,0.851886,0.55322593,0.0,0.56399804,0.58110046,0.3589058,0.0,0.680508,0.28641325,-0.34159365,0.0,0.21579476,772.8205,792.5641,990.0,780.07324,642.674,0.17681884765625,-0.018798828125,0.99371337890625,5.689849853515625,-4.119720458984375,-1.95892333984375,1,1.0,1.0,2.0,1.0,60.00
2021-09-11 01:26:22.818,0.513606,0.64965135,0.0,0.35423928,0.11457232,0.3538556,0.0,0.042454768,0.8780368,0.36944506,0.0,1.0378592,0.5818641,0.28370568,0.0,0.6307296,0.2033753,-0.3672177,0.0,0.19084574,846.55676,787.72894,1396.1538,776.8498,950.9158,0.17926025390625,-0.01495361328125,0.99920654296875,5.5328369140625,-3.39447021484375,-2.51220703125,1,1.0,1.0,2.0,1.0,60.00
2021-09-11 01:26:22.981,,,,,,,,,,,,,,,,,,,,,,,,,,,,,,,,,,,,,,/muse/elements/blink
2021-09-11 01:26:23.334,0.5775692,0.3118733,0.0,0.40673965,0.52133673,0.353985,0.0,0.42752737,1.1970121,0.6156445,0.0,1.2899163,0.60109955,0.25361592,0.0,0.6638645,0.14424865,-0.22534557,0.0,0.24238175,773.6264,780.07324,1032.7106,768.7912,745.42126,0.17572021484375,-0.02105712890625,0.99969482421875,5.443115234375,-4.164581298828125,-1.89910888671875,1,1.0,1.0,2.0,1.0,60.00
2021-09-11 01:26:23.844,0.6270933,0.5108099,0.0,0.5543647,0.6976218,0.68054116,0.0,0.63983196,1.197754,0.71526814,0.0,1.335661,0.5159403,0.20635457,0.0,0.6976518,0.11122804,-0.18223609,0.0,0.25838575,688.20514,760.7326,426.7033,741.39197,605.6044,0.18060302734375,-0.01983642578125,0.99920654296875,5.9814453125,-3.730926513671875,-2.6617431640625,1,1.0,1.0,2.0,1.0,60.00
2021-09-11 01:26:24.362,0.75029534,0.58385056,0.0,0.66785175,0.77665055,0.695677,0.0,0.7459997,1.1900669,0.73539656,0.0,1.286858,0.54510826,0.3048247,0.0,0.7319152,0.10244769,-0.12332898,0.0,0.26633108,642.27106,728.0952,65.27473,732.9304,857.8388,0.17254638671875,-0.01202392578125,0.996337890625,5.659942626953125,-4.029998779296875,-1.92901611328125,1,1.0,1.0,2.0,1.0,60.00
2021-09-11 01:26:24.878,0.7382417,0.62979233,0.0,0.8910345,0.63516927,0.7867564,0.0,0.66174036,1.105659,0.7171424,0.0,1.2985164,0.7175095,0.3528159,0.0,0.82631356,0.25842845,-0.1390619,0.0,0.22786395,890.87915,764.35895,1483.5897,820.3663,844.5421,0.1759033203125,-0.03009033203125,1.0008544921875,5.121612548828125,-3.043060302734375,-2.265472412109375,1,1.0,1.0,2.0,1.0,60.00
2021-09-11 01:26:25.388,0.8186556,0.714955,0.0,0.9780668,0.4549864,0.4651454,0.0,0.503029,0.74658185,0.6267705,0.0,1.036436,0.75743073,0.3570534,0.0,0.8580857,0.35718912,-0.1531597,0.0,0.21623397,861.8681,775.64105,1325.641,800.2198,941.2454,0.17236328125,-0.0205078125,1.00115966796875,5.271148681640625,-4.972076416015625,-3.12530517578125,1,1.0,1.0,2.0,1.0,60.00
2021-09-11 01:26:25.912,0.73207515,0.98384905,0.0,0.84390426,0.45239514,0.25164998,0.0,0.42558828,1.0421208,0.6084366,0.0,1.0468388,0.7461732,0.31372353,0.0,0.8647357,0.34124434,-0.17036822,0.0,0.27307463,898.93774,771.6117,1514.2124,815.12823,952.1245,0.1768798828125,-0.0269775390625,0.99835205078125,6.422576904296875,-3.12530517578125,-2.093505859375,1,1.0,1.0,2.0,1.0,60.00
2021-09-11 01:26:26.369,,,,,,,,,,,,,,,,,,,,,,,,,,,,,,,,,,,,,,/muse/elements/blink
2021-09-11 01:26:26.430,0.8810263,1.1121762,0.0,0.8458984,0.6216036,0.33492896,0.0,0.5217728,1.0768226,0.70752466,0.0,1.0673499,0.6119863,0.40591016,0.0,0.79848087,0.27971599,-0.09706764,0.0,0.29182458,847.76556,777.25275,1206.3737,807.47253,695.8608,0.17413330078125,-0.02520751953125,1.0003662109375,5.682373046875,-3.51409912109375,-2.25799560546875,1,1.0,1.0,2.0,1.0,60.00
2021-09-11 01:26:26.951,0.95120686,1.0645986,0.0,0.78439707,0.768491,0.30795398,0.0,0.6442516,1.1478797,0.6201864,0.0,1.0054481,0.6328058,0.3837316,0.0,0.7983128,0.2838538,-0.077142246,0.0,0.38377893,679.34064,744.21246,715.2015,728.0952,735.34796,0.17144775390625,-0.02288818359375,0.999267578125,6.063690185546875,-3.865509033203125,-2.34771728515625,1,1.0,1.0,2.0,1.0,60.00
2021-09-11 01:26:27.474,,,,,,,,,,,,,,,,,,,,,,,,,,,,,,,,,,,,,,/muse/elements/blink
2021-09-11 01:26:27.477,1.0013763,0.9616671,0.0,0.8255823,0.97612774,0.41262814,0.0,0.7843952,1.2209412,0.5179659,0.0,1.0949122,0.6758904,0.3202946,0.0,0.8004714,0.45391202,-0.105725154,0.0,0.41366494,895.31134,770.80585,1307.9121,839.304,804.65204,0.1773681640625,-0.0206298828125,0.99566650390625,5.390777587890625,-4.26177978515625,-1.83929443359375,1,1.0,1.0,2.0,1.0,60.00
2021-09-11 01:26:28.000,0.97943896,0.8263753,0.0,0.7079532,1.0217007,0.58426994,0.0,0.8776924,1.1292446,0.30203345,0.0,1.1049823,0.73332304,0.30153406,0.0,0.80330306,0.50701946,-0.16504548,0.0,0.5242312,763.1502,767.98535,688.60803,775.64105,720.4396,0.17364501953125,-0.015869140625,0.9969482421875,5.4730224609375,-3.835601806640625,-1.79443359375,1,1.0,1.0,2.0,1.0,60.00
2021-09-11 01:26:28.506,0.8137084,0.7144402,0.0,0.6454222,0.907611,0.5506783,0.0,0.7474652,1.0489866,0.12710328,0.0,1.0594839,0.6119152,0.31650332,0.0,0.7434687,0.42711276,-0.20085329,0.0,0.5049924,681.75824,753.47986,300.989,745.42126,671.28204,0.17596435546875,-0.023681640625,0.99627685546875,5.944061279296875,-3.611297607421875,-2.19818115234375,1,1.0,1.0,2.0,1.0,60.00
2021-09-11 01:26:29.012,0.54726243,0.5321952,0.0,0.5850229,0.464471,0.54835576,0.0,0.5657897,0.82004637,0.37195885,0.0,0.9591996,0.32790524,0.2783323,0.0,0.662243,0.19464996,-0.26620525,0.0,0.4403232,657.5824,770.0,417.43588,739.7802,575.38464,0.1746826171875,-0.02264404296875,1.00079345703125,5.450592041015625,-4.015045166015625,-2.093505859375,1,1.0,1.0,2.0,1.0,60.00
2021-09-11 01:26:29.557,0.2973912,0.4064748,0.0,0.4930925,-0.10678652,0.4341216,0.0,0.18214116,0.23902828,0.50110966,0.0,0.63271207,0.19703954,0.18628767,0.0,0.62241966,0.0727365,-0.3876114,0.0,0.22993407,954.1392,737.76556,1479.1575,871.9414,955.34796,0.17236328125,-0.0247802734375,0.9974365234375,5.86181640625,-2.086029052734375,-1.876678466796875,1,1.0,1.0,2.0,1.0,60.00
2021-09-11 01:26:29.613,,,,,,,,,,,,,,,,,,,,,,,,,,,,,,,,,,,,,,/muse/elements/blink
2021-09-11 01:26:30.078,0.15386567,0.3871296,0.0,0.47570738,-0.094277084,0.5672866,0.0,0.3126183,0.11744411,0.476534,0.0,0.555264,0.18831553,0.13992235,0.0,0.649602,0.04442871,-0.4483042,0.0,0.055221647,875.9707,768.7912,1303.0769,830.4396,890.87915,0.1661376953125,-0.02099609375,0.998779296875,3.887939453125,-3.865509033203125,-1.6748046875,1,1.0,1.0,2.0,1.0,60.00
2021-09-11 01:26:30.606,0.18178816,0.29322222,0.0,0.51002544,-0.22290374,0.5600987,0.0,0.51349777,0.08915978,0.42044273,0.0,0.5100671,0.21047206,0.18993114,0.0,0.71764857,-0.045143615,-0.5689314,0.0,-0.1649362,900.14655,725.2747,23.772894,829.6337,900.54944,0.1885986328125,-0.03509521484375,0.9957275390625,5.2935791015625,-4.68048095703125,-2.534637451171875,1,1.0,1.0,2.0,1.0,60.00
2021-09-11 01:26:30.950,,,,,,,,,,,,,,,,,,,,,,,,,,,,,,,,,,,,,,/muse/elements/blink
2021-09-11 01:26:31.112,0.18178816,0.2361976,0.0,0.51002544,-0.22290374,0.47101417,0.0,0.51349777,0.08915978,0.41651255,0.0,0.5100671,0.21047206,0.19251312,0.0,0.71764857,-0.045143615,-0.6140139,0.0,-0.1649362,679.7436,806.26373,170.03664,767.98535,739.3773,0.1697998046875,-0.02093505859375,1.00067138671875,5.802001953125,-3.768310546875,-2.041168212890625,1,1.0,1.0,2.0,1.0,60.00
2021-09-11 01:26:31.615,0.73183024,0.2361976,0.0,0.8194305,0.59882134,0.47101417,0.0,0.43410695,1.0584792,0.41651255,0.0,0.9426696,0.81496406,0.19251312,0.0,0.88642347,0.26426947,-0.6140139,0.0,0.5337701,782.49084,806.6667,755.89746,790.14655,726.4835,0.17095947265625,-0.02899169921875,0.99603271484375,5.929107666015625,-3.760833740234375,-2.16827392578125,1,1.0,1.0,4.0,1.0,60.00
2021-09-11 01:26:32.123,0.73692834,0.2361976,0.0,0.62426,0.6641775,0.47101417,0.0,0.4636471,1.0898426,0.41651255,0.0,0.98132306,0.7659004,0.19251312,0.0,0.910705,0.31962037,-0.6140139,0.0,0.45359343,670.4762,770.80585,166.00732,745.0183,764.7619,0.176025390625,-0.022705078125,0.99530029296875,5.241241455078125,-4.687957763671875,-2.370147705078125,1,1.0,1.0,4.0,1.0,60.00
2021-09-11 01:26:32.649,0.82649267,0.2361976,0.0,0.7753102,0.7029937,0.47101417,0.0,0.5396869,1.1135615,0.41651255,0.0,1.0038773,0.7055323,0.19251312,0.0,0.8688181,0.32361922,-0.6140139,0.0,0.40022033,696.26373,772.01465,197.03297,774.83514,756.7033,0.176513671875,-0.02880859375,0.99285888671875,5.540313720703125,-3.835601806640625,-2.235565185546875,1,1.0,1.0,4.0,1.0,60.00
2021-09-11 01:26:33.176,0.82834595,0.91983813,0.0,0.75582737,0.7273879,0.27871516,0.0,0.57227707,1.0207976,0.5426129,0.0,0.79744214,0.6065865,0.18476753,0.0,0.87445265,0.38579717,0.0085621085,0.0,0.3191767,820.7692,788.93774,1048.022,839.304,764.7619,0.1793212890625,-0.0230712890625,0.992431640625,5.091705322265625,-4.074859619140625,-2.459869384765625,1,1.0,1.0,2.0,1.0,60.00
2021-09-11 01:26:33.685,0.93453366,1.0460069,0.0,1.0294361,0.7082311,0.100636326,0.0,0.6377473,0.98450315,0.25437236,0.0,0.88441074,0.44349417,0.12291902,0.0,0.7611903,0.38216022,-0.31158486,0.0,0.24440861,693.44324,782.8938,21.35531,777.6557,973.47986,0.1837158203125,-0.0255126953125,0.9949951171875,6.063690185546875,-4.029998779296875,-2.22808837890625,1,1.0,1.0,2.0,1.0,60.00
2021-09-11 01:26:34.191,0.8911693,0.9568292,0.0,1.0500937,0.75887316,0.36310735,0.0,0.728695,0.87360656,0.59518075,0.0,0.9651257,0.60076904,0.13384227,0.0,0.7839839,0.18341212,-0.3665849,0.0,0.31777388,896.9231,789.7436,1450.9524,811.50183,894.90845,0.180419921875,-0.02496337890625,0.99432373046875,5.7421875,-3.63372802734375,-2.01873779296875,1,1.0,1.0,2.0,1.0,60.00
2021-09-11 01:26:34.695,0.76866615,0.9664993,0.0,0.959217,0.64393044,0.3949575,0.0,0.69138503,0.9011991,0.66809565,0.0,1.0067652,0.5947934,0.09264966,0.0,0.7111671,0.24973802,-0.37564185,0.0,0.37008652,685.38464,766.3736,341.28204,744.21246,718.4249,0.17596435546875,-0.02130126953125,0.99530029296875,5.5029296875,-3.790740966796875,-2.04864501953125,1,1.0,1.0,2.0,1.0,60.00
2021-09-11 01:26:35.228,0.86139303,0.8704415,0.0,0.9532727,0.5831819,0.55451363,0.0,0.58773446,0.961048,0.63939154,0.0,1.0519122,0.6496351,0.08227196,0.0,0.7494198,0.2777165,-0.40487072,0.0,0.38398078,752.27106,781.28204,807.8755,787.72894,817.5458,0.1754150390625,-0.0233154296875,0.99627685546875,5.81695556640625,-3.648681640625,-2.4822998046875,1,1.0,1.0,2.0,1.0,60.00
2021-09-11 01:26:35.730,0.7465732,0.91203904,0.0,0.7745404,0.45403105,0.5541213,0.0,0.44510952,0.9277743,0.63730466,0.0,0.73213917,0.6636635,0.0066430075,0.0,0.71167696,0.28062776,-0.3450099,0.0,0.35209176,668.0586,783.69965,285.67764,759.92676,745.0183,0.17559814453125,-0.02459716796875,0.99859619140625,5.24871826171875,-4.0972900390625,-2.2430419921875,1,1.0,1.0,2.0,1.0,60.00
2021-09-11 01:26:36.246,0.69728494,0.91203904,0.0,0.6342215,0.50531167,0.5541213,0.0,0.2699055,0.8930373,0.63730466,0.0,0.7101254,0.61071277,0.0066430075,0.0,0.69983876,0.26443255,-0.3450099,0.0,0.32554576,914.65204,786.52014,1538.3883,830.84247,892.8938,0.17919921875,-0.0302734375,0.992431640625,5.8319091796875,-4.194488525390625,-2.908477783203125,1,1.0,1.0,2.0,1.0,60.00
2021-09-11 01:26:36.757,0.3641666,0.91203904,0.0,0.21828632,0.40289152,0.5541213,0.0,0.18589933,0.8440964,0.63730466,0.0,0.6990821,0.47169402,0.0066430075,0.0,0.6040285,0.3493383,-0.3450099,0.0,0.2986446,825.2015,780.07324,1004.10254,808.2784,891.28204,0.17767333984375,-0.02410888671875,0.99822998046875,5.12908935546875,-4.42626953125,-2.10845947265625,1,1.0,1.0,2.0,1.0,60.00
2021-09-11 01:26:37.163,,,,,,,,,,,,,,,,,,,,,,,,,,,,,,,,,,,,,,/muse/elements/blink
2021-09-11 01:26:37.276,0.32435542,0.7221313,0.0,0.10488086,0.38039857,-0.14512445,0.0,-0.0032824161,0.7372426,0.0974692,0.0,0.586933,0.34835812,0.18825442,0.0,0.5585824,0.41011828,-0.13843995,0.0,0.3356811,892.8938,769.59705,38.68132,821.5751,850.58606,0.1806640625,-0.02587890625,0.9981689453125,5.96649169921875,-3.46923828125,-1.846771240234375,1,1.0,1.0,2.0,1.0,60.00
2021-09-11 01:26:37.781,0.3094237,0.8425512,0.0,0.035713986,0.07678107,0.28971273,0.0,-0.12436768,0.08593877,0.33234048,0.0,0.5046976,0.3159752,0.23412411,0.0,0.5586739,0.49022782,-0.17775922,0.0,0.24364346,852.1978,787.72894,1100.8059,807.8755,972.27106,0.18475341796875,-0.0206298828125,0.995361328125,6.041259765625,-3.9178466796875,-1.368255615234375,1,1.0,1.0,2.0,1.0,60.00
2021-09-11 01:26:38.294,0.31601226,0.76025146,0.0,-0.014633524,0.023319904,0.31779692,0.0,-0.15129216,0.03789924,0.3755145,0.0,0.45812738,0.35003483,0.2730632,0.0,0.5706073,0.52104586,-0.20822959,0.0,0.25638956,739.7802,772.8205,576.1905,774.0293,616.8865,0.17974853515625,-0.0234375,1.00079345703125,5.899200439453125,-3.551483154296875,-1.727142333984375,1,1.0,1.0,2.0,1.0,60.00
2021-09-11 01:26:38.715,,,,,,,,,,,,,,,,,,,,,,,,,,,,,,,,,,,,,,/muse/elements/blink
2021-09-11 01:26:38.812,0.5975031,0.6201243,0.0,0.24351443,0.14734574,0.23476702,0.0,0.34215534,0.69582087,0.37662986,0.0,0.6738101,0.6134001,0.24501294,0.0,0.49505422,0.21545713,-0.27131677,0.0,0.22475678,859.0476,784.90845,1361.0989,824.7985,769.59705,0.17620849609375,-0.02239990234375,0.996337890625,5.600128173828125,-3.745880126953125,-2.011260986328125,1,1.0,1.0,2.0,1.0,60.00
2021-09-11 01:26:39.318,0.621562,0.38240507,0.0,0.75616074,0.532349,0.040979985,0.0,0.6199701,0.8802751,0.23631644,0.0,0.9570861,0.6294827,0.15140261,0.0,0.6173072,0.22836816,-0.25644746,0.0,0.170494,708.3516,769.19415,422.67398,764.35895,874.7619,0.1865234375,-0.02508544921875,0.9962158203125,5.435638427734375,-4.388885498046875,-2.714080810546875,1,1.0,1.0,2.0,1.0,60.00
2021-09-11 01:26:39.834,0.6178533,0.36100453,0.0,0.8163035,0.5185678,0.05538974,0.0,0.6696067,0.91174084,0.34755,0.0,0.9570861,0.6246175,0.09602786,0.0,0.6431619,0.17691973,-0.22652192,0.0,0.159093,832.4542,743.4066,1025.0549,805.8608,827.619,0.18505859375,-0.02154541015625,0.99920654296875,5.4132080078125,-3.252410888671875,-2.669219970703125,1,1.0,1.0,2.0,1.0,60.00
2021-09-11 01:26:39.971,,,,,,,,,,,,,,,,,,,,,,,,,,,,,,,,,,,,,,/muse/elements/blink
2021-09-11 01:26:40.343,0.6276987,0.6477489,0.0,1.1010407,0.6181457,0.6439859,0.0,0.8816977,0.9103578,0.5572268,0.0,0.940499,0.58878386,0.18049385,0.0,0.7724482,0.1377743,-0.21911108,0.0,0.05534595,732.9304,765.56775,570.9524,749.85345,658.7912,0.1796875,-0.0234375,1.0001220703125,5.644989013671875,-3.9776611328125,-1.622467041015625,1,1.0,1.0,2.0,1.0,60.00
2021-09-11 01:26:40.849,0.5844536,0.7522378,0.0,1.1010407,0.025642354,0.787666,0.0,0.8816977,0.71539134,0.5572268,0.0,0.940499,0.42954957,0.25499693,0.0,0.7724482,-0.1640439,-0.19608863,0.0,0.05534595,679.7436,780.4762,159.56044,755.09155,703.91943,0.178955078125,-0.0235595703125,0.99627685546875,5.375823974609375,-3.48419189453125,-2.056121826171875,1,1.0,1.0,2.0,1.0,60.00
2021-09-11 01:26:41.372,0.5844536,0.9839323,0.0,1.1010407,0.025642354,1.0424677,0.0,0.8816977,0.71539134,0.6051881,0.0,0.940499,0.42954957,0.3363577,0.0,0.7724482,-0.1640439,-0.17486954,0.0,0.05534595,724.0659,776.8498,611.2454,773.6264,710.7692,0.17889404296875,-0.020263671875,0.99462890625,5.30853271484375,-4.149627685546875,-1.8243408203125,1,1.0,1.0,2.0,1.0,60.00
2021-09-11 01:26:41.905,0.4873727,1.0690583,0.0,0.2195487,0.35353002,1.118287,0.0,0.28735086,0.4556433,0.6031682,0.0,0.6429792,0.36497453,0.3493011,0.0,0.52981925,0.04036086,-0.2051316,0.0,0.11785164,673.2967,788.93774,226.84982,745.0183,464.1758,0.18145751953125,-0.01934814453125,0.9947509765625,5.525360107421875,-4.2767333984375,-1.83929443359375,1,1.0,1.0,2.0,1.0,55.00
2021-09-11 01:26:42.384,,,,,,,,,,,,,,,,,,,,,,,,,,,,,,,,,,,,,,/muse/elements/blink
2021-09-11 01:26:42.410,0.51765805,1.0690583,0.0,0.27280244,0.33927676,1.118287,0.0,0.2916256,0.5723792,0.6031682,0.0,0.65160173,0.36168808,0.3493011,0.0,0.5681342,0.03615124,-0.2051316,0.0,0.064550966,936.0073,801.8315,1096.7766,847.76556,943.663,0.177001953125,-0.02239990234375,1.00177001953125,5.226287841796875,-3.581390380859375,-2.6019287109375,1,1.0,1.0,2.0,1.0,55.00
2021-09-11 01:26:42.927,0.5706892,1.0690583,0.0,0.29491046,0.399502,1.118287,0.0,0.32094574,0.57107896,0.6031682,0.0,0.6443649,0.3549094,0.3493011,0.0,0.5780914,-0.02361914,-0.2051316,0.0,0.040557258,695.4579,769.19415,364.652,745.42126,691.02563,0.1796875,-0.02264404296875,0.998046875,6.2506103515625,-3.715972900390625,-1.62994384765625,1,1.0,1.0,2.0,1.0,55.00
2021-09-11 01:26:43.455,0.53412896,1.0690583,0.0,0.33931443,0.352274,1.118287,0.0,0.34737572,0.4779077,0.6031682,0.0,0.41624105,0.36667016,0.3493011,0.0,0.64960706,-7.274523E-4,-0.2051316,0.0,-0.07074819,729.304,778.0586,185.34799,767.98535,843.73627,0.171630859375,-0.02423095703125,0.9967041015625,5.263671875,-4.5458984375,-2.609405517578125,1,1.0,1.0,2.0,1.0,55.00
2021-09-11 01:26:43.981,-0.3961326,1.0690583,0.0,0.020221213,0.33543998,1.118287,0.0,-0.006744951,0.6626016,0.6031682,0.0,0.5390097,0.45651352,0.3493011,0.0,0.42706278,-0.038799353,-0.2051316,0.0,0.20808457,668.46155,825.2015,226.04396,757.50916,796.99634,0.17578125,-0.02239990234375,0.99444580078125,5.510406494140625,-3.54400634765625,-2.489776611328125,1,1.0,1.0,2.0,1.0,55.00
2021-09-11 01:26:44.509,0.048160437,1.0690583,0.0,0.11279314,0.3716887,1.118287,0.0,0.20825897,0.71801984,0.6031682,0.0,0.55832785,0.67875093,0.3493011,0.0,0.6434327,0.12612146,-0.2051316,0.0,0.27046895,780.4762,758.315,894.10254,799.41394,786.1172,0.17041015625,-0.03277587890625,0.99658203125,3.222503662109375,-2.1533203125,-3.162689208984375,1,1.0,1.0,2.0,1.0,55.00
2021-09-11 01:26:45.018,0.35062438,1.0690583,0.0,0.044478476,0.49122941,1.118287,0.0,0.40271312,0.87890846,0.6031682,0.0,0.76798576,0.67827696,0.3493011,0.0,0.6710106,0.21033491,-0.2051316,0.0,0.3448779,690.6227,770.0,321.13553,757.9121,630.58606,0.1640625,-0.03997802734375,0.997314453125,5.99639892578125,-4.299163818359375,-1.368255615234375,1,1.0,1.0,2.0,1.0,55.00
2021-09-11 01:26:45.569,0.5876165,0.5339287,0.0,0.263234,0.6282653,-0.01257395,0.0,0.60293025,1.0557232,0.43284878,0.0,0.9419863,0.7963895,0.25880167,0.0,0.8403304,0.28353745,-0.24722962,0.0,0.4183193,792.96704,767.1795,1227.7289,799.011,851.79486,0.1640625,-0.0399169921875,0.99859619140625,5.794525146484375,-4.224395751953125,-1.816864013671875,1,1.0,1.0,2.0,1.0,55.00
2021-09-11 01:26:46.079,0.5957014,0.44532323,0.0,0.58363855,0.6622652,0.30033204,0.0,0.57151335,1.0566877,0.4877932,0.0,0.97086376,0.6896684,0.30191052,0.0,0.723339,0.33565053,-0.26099315,0.0,0.34911922,901.75824,772.4176,1382.0513,830.0366,1192.2711,0.16729736328125,-0.04498291015625,0.99920654296875,5.562744140625,-4.164581298828125,-2.46734619140625,1,1.0,1.0,2.0,1.0,55.00
2021-09-11 01:26:46.595,0.6024879,0.357498,0.0,0.74390095,0.5670598,0.22008388,0.0,0.4325021,1.0519191,0.5142003,0.0,0.9664702,0.7100401,0.26012677,0.0,0.6896171,0.3134074,-0.24611735,0.0,0.2707041,813.1135,779.2674,1259.1575,795.78754,780.87915,0.16302490234375,-0.0364990234375,0.998779296875,5.99639892578125,-3.820648193359375,-1.854248046875,1,1.0,1.0,2.0,1.0,55.00
2021-09-11 01:26:47.109,0.6303405,0.27301618,0.0,0.76106447,0.511844,0.30274975,0.0,0.31160283,0.6112392,0.50848305,0.0,0.832132,0.61959606,0.20424417,0.0,0.5113039,0.28708342,-0.20612703,0.0,0.18064915,918.2784,785.7143,3.2234433,820.7692,855.0183,0.165771484375,-0.03558349609375,0.99786376953125,6.198272705078125,-3.69354248046875,-2.400054931640625,1,1.0,1.0,2.0,1.0,55.00
2021-09-11 01:26:47.633,0.6279859,0.2058588,0.0,0.6094617,0.49319252,0.19055884,0.0,0.43849167,0.6750692,0.5028451,0.0,0.8955605,0.624019,0.16086404,0.0,0.63575923,0.19119734,-0.18353231,0.0,0.30009252,830.84247,787.326,789.7436,799.81683,996.04395,0.1700439453125,-0.03570556640625,0.99700927734375,5.644989013671875,-3.925323486328125,-1.854248046875,1,1.0,1.0,2.0,1.0,55.00
2021-09-11 01:26:48.169,0.53504527,0.3354415,0.0,0.47283274,0.45955235,0.17538324,0.0,0.45886752,0.70559365,0.5566748,0.0,0.8955605,0.6231076,0.2131611,0.0,0.6475194,0.17002232,-0.13099162,0.0,0.32939538,761.53845,776.4469,812.71063,768.7912,981.9414,0.1666259765625,-0.0382080078125,0.99627685546875,5.4132080078125,-3.7384033203125,-2.37762451171875,1,1.0,1.0,2.0,1.0,55.00
2021-09-11 01:26:48.694,0.28337458,0.34910634,0.0,0.4062042,0.37168175,0.118632674,0.0,0.33602333,0.6981043,0.5068551,0.0,0.91227376,0.64912355,0.25079602,0.0,0.68721575,0.14439929,-0.17806214,0.0,0.33981332,686.1905,785.31134,314.68866,752.674,679.7436,0.16693115234375,-0.035400390625,0.99920654296875,5.345916748046875,-3.66363525390625,-1.891632080078125,1,1.0,1.0,2.0,1.0,55.00
2021-09-11 01:26:49.213,0.43202522,0.59060836,0.0,0.47028726,0.3659794,0.40083715,0.0,0.17204548,0.6861955,0.4676648,0.0,0.73658204,0.74345595,0.32823512,0.0,0.728509,0.15966812,-0.22544116,0.0,0.2963031,796.99634,781.28204,687.3993,799.41394,1173.7362,0.16937255859375,-0.0362548828125,0.99017333984375,5.779571533203125,-3.641204833984375,-2.07855224609375,1,1.0,1.0,2.0,1.0,55.00
2021-09-11 01:26:49.472,,,,,,,,,,,,,,,,,,,,,,,,,,,,,,,,,,,,,,/muse/elements/blink
2021-09-11 01:26:49.738,0.7663374,0.54194915,0.0,0.7079191,0.586094,0.46587065,0.0,0.36153427,0.87051785,0.6605961,0.0,0.94480497,0.6982581,0.33396605,0.0,0.76936245,0.29182974,-0.2439912,0.0,0.3739104,890.87915,776.8498,1645.5677,826.4103,812.71063,0.17095947265625,-0.0350341796875,0.9976806640625,5.30853271484375,-3.84307861328125,-2.1832275390625,1,1.0,1.0,2.0,1.0,55.00
2021-09-11 01:26:50.268,0.8784447,0.4999775,0.0,0.7348328,0.6752244,0.44811952,0.0,0.49154872,0.8754577,0.6698712,0.0,0.94480497,0.67280775,0.33808893,0.0,0.7098497,0.3339767,-0.2414657,0.0,0.38711149,863.0769,780.07324,1427.1794,809.4872,975.4945,0.1666259765625,-0.0374755859375,0.99957275390625,5.944061279296875,-3.566436767578125,-1.891632080078125,1,1.0,1.0,2.0,1.0,55.00
2021-09-11 01:26:50.786,0.8479436,0.2553894,0.0,0.7240983,0.6312794,0.2515884,0.0,0.48801562,0.87045383,0.6735167,0.0,0.8399801,0.6167398,0.29168537,0.0,0.7090795,0.33577403,-0.20650932,0.0,0.36178643,896.9231,773.6264,1640.3297,833.2601,821.1722,0.1651611328125,-0.03564453125,0.99786376953125,5.884246826171875,-4.059906005859375,-2.145843505859375,1,1.0,1.0,2.0,1.0,55.00
2021-09-11 01:26:51.293,0.6077894,0.43075705,0.0,0.49500316,0.5924372,0.10881861,0.0,0.38171625,0.7454482,0.54933447,0.0,0.7144721,0.59499544,0.23523599,0.0,0.70211244,0.24096113,-0.30229163,0.0,0.2945027,796.5934,785.7143,719.6337,790.9524,869.92676,0.16357421875,-0.0357666015625,1.0003662109375,5.719757080078125,-4.127197265625,-2.415008544921875,1,1.0,1.0,2.0,1.0,55.00
2021-09-11 01:26:51.812,0.39172786,0.60673815,0.0,0.3811539,0.4913095,0.087450676,0.0,0.2985449,0.55301416,0.5521559,0.0,0.5987969,0.60311544,0.21603307,0.0,0.7243547,0.13512926,-0.36887774,0.0,0.22540765,685.78754,780.4762,278.4249,770.0,679.34064,0.16741943359375,-0.03179931640625,0.99725341796875,5.899200439453125,-3.78326416015625,-1.487884521484375,1,1.0,1.0,2.0,1.0,55.00
2021-09-11 01:26:52.123,,,,,,,,,,,,,,,,,,,,,,,,,,,,,,,,,,,,,,/muse/elements/blink
2021-09-11 01:26:52.334,0.30767682,0.6306479,0.0,0.34068197,0.6001567,0.058064334,0.0,0.32272187,0.56260514,0.48522094,0.0,0.47335592,0.5650089,0.14579521,0.0,0.63050145,0.024419632,-0.47524044,0.0,0.17936449,728.9011,788.1319,577.8022,775.64105,624.5421,0.16339111328125,-0.03326416015625,0.9962158203125,5.42816162109375,-3.9776611328125,-1.712188720703125,1,1.0,1.0,2.0,1.0,60.00
2021-09-11 01:26:52.841,0.278024,0.6018927,0.0,0.08604767,0.561788,0.17839777,0.0,0.19754227,0.41215846,0.4797883,0.0,0.4263297,0.6525789,0.13616817,0.0,0.55942875,-0.17653248,-0.5477085,0.0,-0.04743798,855.0183,785.7143,1332.8938,816.337,881.6117,0.16925048828125,-0.03411865234375,0.9998779296875,5.570220947265625,-3.715972900390625,-2.10845947265625,1,1.0,1.0,2.0,1.0,60.00
2021-09-11 01:26:53.387,0.27107564,0.2972148,0.0,0.1016481,0.632964,0.12291267,0.0,0.19260758,0.3323973,0.30073738,0.0,0.39038154,0.6649857,0.088990584,0.0,0.55487424,-0.21475203,-0.53713495,0.0,-0.076058134,723.2601,782.49084,319.12088,769.59705,732.9304,0.16424560546875,-0.03363037109375,0.99713134765625,6.033782958984375,-3.970184326171875,-2.34771728515625,1,1.0,1.0,2.0,1.0,60.00
2021-09-11 01:26:53.894,0.61037505,-0.18094869,0.0,0.1016481,0.4352739,-0.30250305,0.0,0.19260758,1.0306407,0.19546445,0.0,0.39038154,0.54742384,0.12899065,0.0,0.55487424,0.33017313,-0.37852997,0.0,-0.076058134,891.685,785.31134,1500.1099,832.0513,941.2454,0.17156982421875,-0.03265380859375,0.99407958984375,5.345916748046875,-3.90289306640625,-1.772003173828125,1,1.0,1.0,2.0,1.0,60.00
2021-09-11 01:26:54.403,0.59731334,0.002236966,0.0,0.4089281,0.3466965,0.050219428,0.0,0.48919067,1.3910685,0.4362727,0.0,0.7853857,0.53469086,0.13105215,0.0,0.53221965,0.27598897,-0.3480839,0.0,0.45917076,701.50183,794.17584,0.0,765.9707,1054.4689,0.17822265625,-0.02935791015625,0.9964599609375,6.003875732421875,-3.409423828125,-2.056121826171875,1,1.0,1.0,2.0,1.0,60.00
2021-09-11 01:26:54.918,0.5904598,0.49147433,0.0,0.42899448,0.39173278,0.16730437,0.0,0.71198446,1.4290205,0.436328,0.0,1.1972886,0.60691273,0.18760192,0.0,0.64122343,0.21247391,-0.21781762,0.0,0.39466226,706.7399,776.04395,523.4066,765.56775,769.19415,0.17022705078125,-0.0308837890625,0.994384765625,5.7720947265625,-3.745880126953125,-2.19818115234375,1,1.0,1.0,2.0,1.0,60.00
2021-09-11 01:26:55.463,0.56409824,0.57427233,0.0,0.37861952,0.4418554,0.2661436,0.0,0.72397035,1.4280933,0.45387682,0.0,1.1972886,0.63057774,0.1717708,0.0,0.68946224,0.23014572,-0.23229791,0.0,0.34455478,739.7802,821.5751,1224.5055,695.4579,1054.0659,0.1656494140625,-0.032470703125,0.997314453125,5.51788330078125,-3.461761474609375,-2.43743896484375,1,1.0,1.0,2.0,1.0,60.00
2021-09-11 01:26:55.609,,,,,,,,,,,,,,,,,,,,,,,,,,,,,,,,,,,,,,/muse/elements/blink
2021-09-11 01:26:55.998,0.5553398,0.6947433,0.0,0.40749338,0.52371395,0.2182281,0.0,0.80583984,1.289207,0.35967612,0.0,1.1972886,0.6772179,0.18087259,0.0,0.7392172,0.24422055,-0.22130191,0.0,0.27980483,889.67035,779.67035,1481.5751,836.8865,956.1539,0.17156982421875,-0.03216552734375,0.99322509765625,6.08612060546875,-4.792633056640625,-2.429962158203125,1,1.0,1.0,2.0,1.0,60.00
2021-09-11 01:26:56.504,0.53691286,0.44885463,0.0,0.25356945,0.51455,0.18530652,0.0,0.5716079,0.6772238,0.29321876,0.0,0.25746492,0.565774,0.06892294,0.0,0.7244015,0.33262786,-0.38781932,0.0,0.2873472,893.2967,786.52014,1617.7656,836.8865,838.49817,0.17108154296875,-0.032958984375,0.99444580078125,5.435638427734375,-3.372039794921875,-2.43743896484375,1,1.0,1.0,2.0,1.0,60.00
2021-09-11 01:26:57.018,0.5006752,0.4456317,0.0,0.3712876,0.39843005,0.068010055,0.0,0.1260906,0.84598005,0.44687575,0.0,0.927045,0.47846705,0.177187,0.0,0.5614095,0.2553078,-0.31157532,0.0,0.29679596,844.1392,783.2967,1059.3041,805.8608,1116.9231,0.17510986328125,-0.0328369140625,0.99664306640625,5.562744140625,-3.4991455078125,-1.42059326171875,1,1.0,1.0,2.0,1.0,60.00
2021-09-11 01:26:57.546,0.76723576,0.4826121,0.0,0.5671097,0.6346539,0.121360116,0.0,0.41910756,1.3263451,0.8300812,0.0,1.1650085,0.7900618,0.25971827,0.0,0.7737338,0.24412464,-0.38968155,0.0,0.40087906,782.8938,770.80585,754.2857,808.68134,630.58606,0.16876220703125,-0.031494140625,0.99896240234375,6.14593505859375,-2.75146484375,-2.549591064453125,1,1.0,1.0,2.0,1.0,60.00
2021-09-11 01:26:57.871,,,,,,,,,,,,,,,,,,,,,,,,,,,,,,,,,,,,,,/muse/elements/blink
2021-09-11 01:26:58.070,0.8698927,0.58318377,0.0,0.7810146,0.72943044,0.06543696,0.0,0.6625566,1.3341542,0.9132879,0.0,1.2457179,0.8078068,0.35210726,0.0,0.76933104,0.23061188,-0.37896568,0.0,0.40480432,699.89014,777.25275,168.82784,745.42126,640.65936,0.17095947265625,-0.03692626953125,0.99359130859375,4.97955322265625,-2.489776611328125,-2.73651123046875,1,1.0,1.0,2.0,1.0,60.00
2021-09-11 01:26:58.107,,,,,,,,,,,,,,,,,,,,,,,,,,,,,,,,,,,,,,/muse/elements/blink
2021-09-11 01:26:58.479,,,,,,,,,,,,,,,,,,,,,,,,,,,,,,,,,,,,,,/muse/elements/blink
2021-09-11 01:26:58.591,0.9928386,0.8541339,0.0,0.91101927,0.8449632,0.056734663,0.0,0.81031954,1.3341542,0.9132879,0.0,1.2457179,0.9229993,0.3295711,0.0,0.85476375,0.21584266,-0.2964364,0.0,0.45627326,774.43225,784.5055,783.69965,792.1612,807.0696,0.174072265625,-0.04034423828125,0.99493408203125,6.05621337890625,-4.59075927734375,-2.22808837890625,1,1.0,1.0,4.0,1.0,60.00
2021-09-11 01:26:59.138,1.1037748,1.044865,0.0,1.0696759,0.9569674,0.2907659,0.0,0.9913211,1.3322558,0.9212283,0.0,1.1592693,0.97567385,0.25916797,0.0,0.86910504,0.16661978,-0.176672,0.0,0.42790392,886.4469,779.2674,18.534798,824.7985,981.9414,0.16900634765625,-0.03399658203125,0.99676513671875,5.78704833984375,-3.93280029296875,-2.46734619140625,1,1.0,1.0,2.0,1.0,60.00
2021-09-11 01:26:59.657,1.1037748,0.9839408,0.0,1.0696759,0.9569674,0.3010763,0.0,0.9913211,1.3322558,0.45279416,0.0,1.1592693,0.97567385,0.11949833,0.0,0.86910504,0.16661978,-0.12954721,0.0,0.42790392,823.1868,777.25275,992.01465,806.6667,888.0586,0.16168212890625,-0.03619384765625,0.9996337890625,5.330963134765625,-3.461761474609375,-2.55706787109375,1,1.0,1.0,4.0,1.0,60.00
2021-09-11 01:27:00.172,0.31678256,0.61409354,0.0,0.26791653,0.3359762,0.27058366,0.0,0.30464917,1.0893482,0.3694575,0.0,0.74983686,0.37542847,0.107517056,0.0,0.7302046,0.15113313,-0.23160173,0.0,0.22309752,711.978,780.07324,609.2308,759.5238,717.2161,0.164794921875,-0.03515625,1.002197265625,5.988922119140625,-3.865509033203125,-2.011260986328125,1,1.0,1.0,2.0,1.0,60.00
2021-09-11 01:27:00.694,0.27915305,-0.066444285,0.0,0.22932903,0.34367666,0.07783598,0.0,0.4176809,1.1797218,0.39663643,0.0,0.7772925,0.44765636,0.18400787,0.0,0.683428,0.12187292,-0.2977097,0.0,0.19043843,841.31866,779.67035,1025.4579,823.1868,782.49084,0.16650390625,-0.03631591796875,0.99755859375,5.390777587890625,-3.147735595703125,-2.3028564453125,1,1.0,1.0,2.0,1.0,60.00
2021-09-11 01:27:01.206,0.32030767,-0.013404241,0.0,0.24730164,0.25760692,0.07225181,0.0,0.32837677,1.190461,0.5505514,0.0,0.7926994,0.51220167,0.19576532,0.0,0.63376254,0.15818633,-0.36138773,0.0,0.15079822,906.99634,792.1612,1200.7325,847.3626,993.6264,0.1654052734375,-0.03680419921875,1.0008544921875,6.1907958984375,-3.282318115234375,-2.160797119140625,1,1.0,1.0,2.0,1.0,60.00
2021-09-11 01:27:01.752,0.6528729,0.13910355,0.0,0.41521287,0.5175679,0.17618704,0.0,0.6394406,1.1997318,0.7157717,0.0,0.82590264,0.6839228,0.22701637,0.0,0.6488066,0.27409932,-0.30167982,0.0,0.20693624,689.81683,791.3553,373.9194,759.5238,599.15753,0.16448974609375,-0.033935546875,1.0010986328125,5.6524658203125,-3.9776611328125,-1.876678466796875,1,1.0,1.0,2.0,1.0,60.00
2021-09-11 01:27:02.290,0.6263765,0.30932164,0.0,0.39967972,0.53154427,0.18283859,0.0,0.61457,1.0134279,0.67229176,0.0,0.81822914,0.6930825,0.1910213,0.0,0.63273174,0.29633754,-0.32382736,0.0,0.20179987,811.0989,794.9817,951.7216,814.7253,932.381,0.15875244140625,-0.0328369140625,0.99884033203125,5.944061279296875,-4.08233642578125,-2.519683837890625,1,1.0,1.0,2.0,1.0,60.00
2021-09-11 01:27:02.799,0.5922291,0.4696511,0.0,0.5376998,0.6476308,0.3487294,0.0,0.6872082,0.9886943,0.7437255,0.0,0.8701121,0.710864,0.17171676,0.0,0.82536954,0.3027778,-0.28719866,0.0,0.36209878,908.20514,784.10254,1562.5641,839.707,1184.2124,0.1639404296875,-0.03851318359375,0.99884033203125,5.60760498046875,-3.09539794921875,-2.6019287109375,1,1.0,1.0,2.0,1.0,50.00
2021-09-11 01:27:03.093,,,,,,,,,,,,,,,,,,,,,,,,,,,,,,,,,,,,,,/muse/elements/blink
2021-09-11 01:27:03.342,0.4344113,0.5511785,0.0,0.5281256,0.74305457,0.26350233,0.0,0.589871,0.8256352,0.71488523,0.0,0.9104031,0.6621972,0.20753135,0.0,0.8790457,0.19166023,-0.30142093,0.0,0.367488,824.7985,776.04395,1218.0586,812.3077,853.8095,0.16302490234375,-0.033447265625,1.000244140625,5.749664306640625,-4.29168701171875,-2.2430419921875,1,1.0,1.0,2.0,1.0,50.00
2021-09-11 01:27:03.848,0.44354385,0.47487986,0.0,0.5280179,0.8252679,0.3163896,0.0,0.6672242,0.8631186,0.82856005,0.0,0.918689,0.80137175,0.27408507,0.0,1.0304445,0.18706593,-0.28052253,0.0,0.40661958,725.2747,788.93774,479.8901,769.19415,689.011,0.161865234375,-0.03314208984375,1.00433349609375,6.10107421875,-3.970184326171875,-2.52716064453125,1,1.0,1.0,2.0,1.0,50.00
2021-09-11 01:27:04.351,0.26434246,0.3024844,0.0,0.24130824,0.72445613,0.27523664,0.0,0.60678023,0.8775609,0.6788107,0.0,0.8757194,0.7820066,0.2677856,0.0,0.8830533,0.10899483,-0.3171695,0.0,0.24893658,850.989,772.8205,1429.597,815.12823,861.4652,0.1600341796875,-0.03277587890625,1.0028076171875,5.7720947265625,-4.74029541015625,-1.921539306640625,1,1.0,1.0,2.0,1.0,50.00
2021-09-11 01:27:04.857,0.47040495,0.3455539,0.0,0.47429603,0.35203117,0.33192024,0.0,0.4673304,0.8060111,0.6741613,0.0,0.69754195,0.7496868,0.265752,0.0,0.76391035,0.18836823,-0.2687321,0.0,0.24020311,900.14655,785.31134,1487.2161,834.87177,1039.9634,0.16583251953125,-0.0362548828125,0.998046875,5.450592041015625,-3.529052734375,-2.594451904296875,1,1.0,1.0,2.0,1.0,50.00
2021-09-11 01:27:05.367,0.586759,0.5283611,0.0,0.60139644,0.05323869,0.2715359,0.0,0.39651296,0.6828362,0.66501987,0.0,0.6177725,0.62858623,0.2809735,0.0,0.5794247,0.18428561,-0.2387103,0.0,0.21369284,888.86444,782.49084,1508.1685,833.663,910.2198,0.16522216796875,-0.03143310546875,1.0009765625,5.555267333984375,-3.790740966796875,-1.622467041015625,1,1.0,1.0,2.0,1.0,50.00
2021-09-11 01:27:05.870,0.62245923,0.58471984,0.0,0.810672,-0.05031715,0.1979169,0.0,0.19893432,0.6835723,0.55803657,0.0,0.51966804,0.5847481,0.31993222,0.0,0.5992082,0.26707882,-0.30107823,0.0,0.26943025,892.8938,786.9231,1447.7289,832.0513,875.16486,0.16278076171875,-0.0343017578125,1.00054931640625,5.30853271484375,-4.194488525390625,-2.28790283203125,1,1.0,1.0,2.0,1.0,50.00
2021-09-11 01:27:06.380,0.6129982,0.53537685,0.0,0.8450296,0.24806742,0.22105628,0.0,0.41278505,0.65731645,0.5123123,0.0,0.55499876,0.59281206,0.38701978,0.0,0.5742842,0.27251342,-0.33844098,0.0,0.24430138,907.3993,799.81683,1500.1099,847.76556,1148.7546,0.16558837890625,-0.0343017578125,1.00079345703125,5.21881103515625,-3.45428466796875,-2.250518798828125,1,1.0,1.0,2.0,1.0,50.00
2021-09-11 01:27:06.892,0.6001414,0.40981302,0.0,0.7800818,0.2633484,0.22028819,0.0,0.4072381,0.6984804,0.509145,0.0,0.5562572,0.56409025,0.31024823,0.0,0.47004732,0.20258796,-0.35609406,0.0,0.27968192,875.16486,789.7436,1119.7435,831.2454,802.6374,0.16217041015625,-0.03582763671875,1.00128173828125,4.762725830078125,-4.366455078125,-2.743988037109375,1,1.0,1.0,2.0,1.0,50.00
2021-09-11 01:27:07.411,0.5305092,0.5763851,0.0,0.6683924,0.32724404,0.27968016,0.0,0.46879876,0.67645806,0.50296986,0.0,0.70826626,0.48825783,0.16793701,0.0,0.4496124,0.13270853,-0.27815643,0.0,0.2473059,723.663,773.6264,710.7692,768.3883,620.10986,0.16888427734375,-0.038330078125,0.99957275390625,5.689849853515625,-3.701019287109375,-2.280426025390625,1,1.0,1.0,2.0,1.0,50.00
2021-09-11 01:27:07.945,0.31596944,0.84926313,0.0,0.47892478,0.15204532,0.42930517,0.0,0.35428497,0.65327233,0.63538194,0.0,0.68742585,0.5009878,0.243398,0.0,0.4988388,0.077832684,-0.32078046,0.0,0.23350693,854.61536,786.52014,1350.6227,823.1868,897.326,0.16656494140625,-0.03631591796875,1.00164794921875,5.674896240234375,-3.87298583984375,-1.973876953125,1,1.0,1.0,2.0,1.0,50.00
2021-09-11 01:27:08.474,0.13306911,0.8448982,0.0,0.34755713,0.21257842,0.40891945,0.0,0.41106325,0.4917748,0.6192803,0.0,0.7866465,0.4834117,0.30038086,0.0,0.52174205,0.11233269,-0.32751644,0.0,0.1974927,792.96704,767.1795,786.1172,811.9048,795.78754,0.1680908203125,-0.03619384765625,1.0018310546875,5.51788330078125,-3.880462646484375,-2.4822998046875,1,1.0,1.0,2.0,1.0,50.00
2021-09-11 01:27:08.627,,,,,,,,,,,,,,,,,,,,,,,,,,,,,,,,,,,,,,/muse/elements/blink
2021-09-11 01:27:08.988,0.1703606,0.958308,0.0,0.18768243,0.23344767,0.7770175,0.0,0.41273314,0.4154395,0.7102578,0.0,0.744323,0.5125074,0.3360315,0.0,0.52733415,0.099585995,-0.25645307,0.0,0.18569273,669.2674,775.2381,165.20146,741.39197,605.2015,0.16802978515625,-0.0382080078125,1.0001220703125,5.869293212890625,-3.887939453125,-2.3028564453125,1,1.0,1.0,2.0,1.0,50.00
2021-09-11 01:27:09.497,0.17221077,0.88724357,0.0,0.0309584,0.36441374,0.81886846,0.0,0.5601832,0.3299697,0.5840032,0.0,0.71434337,0.3729549,0.27087197,0.0,0.48576978,0.060459465,-0.1937843,0.0,0.23433417,877.98535,788.5348,948.49817,833.663,1230.1465,0.16790771484375,-0.034912109375,0.999267578125,5.57769775390625,-4.373931884765625,-2.385101318359375,1,1.0,1.0,2.0,1.0,50.00
2021-09-11 01:27:10.031,0.08349406,0.9927622,0.0,-0.18194608,0.6121805,0.8947059,0.0,0.7709512,0.674533,0.5665595,0.0,0.9620659,0.9751814,0.37135294,0.0,0.821755,0.06045083,-0.250365,0.0,0.025022324,812.3077,788.93774,994.83514,793.7729,655.16486,0.1683349609375,-0.0384521484375,0.99493408203125,5.704803466796875,-3.8580322265625,-1.80938720703125,1,1.0,1.0,2.0,1.0,50.00
2021-09-11 01:27:10.558,0.2186924,0.72166663,0.0,0.04588272,0.42756617,0.3838679,0.0,0.51627713,0.9128587,0.69421035,0.0,0.9684751,0.8206399,0.33628377,0.0,0.6962154,0.13336097,-0.48724768,0.0,0.3763171,724.87177,789.7436,68.09524,780.87915,819.15753,0.1708984375,-0.03936767578125,0.9986572265625,5.196380615234375,-3.446807861328125,-2.908477783203125,1,1.0,1.0,2.0,1.0,50.00
2021-09-11 01:27:11.091,0.31853673,0.64966214,0.0,0.43045896,0.43377066,0.29172224,0.0,0.52796346,0.9250423,0.69421035,0.0,0.9801322,0.7355294,0.2881677,0.0,0.6708166,0.14277187,-0.42890742,0.0,0.3046756,805.8608,787.72894,848.1685,796.99634,693.8461,0.1666259765625,-0.035888671875,1.00042724609375,5.944061279296875,-3.805694580078125,-1.428070068359375,1,1.0,1.0,2.0,1.0,50.00
2021-09-11 01:27:11.636,0.3508333,0.59993446,0.0,0.49409977,0.41989467,0.23206273,0.0,0.3774753,0.96774983,0.6998392,0.0,0.6110768,0.52874565,0.23577592,0.0,0.60739434,0.14220712,-0.45099235,0.0,0.27462974,718.022,792.1612,330.0,764.7619,624.1392,0.16278076171875,-0.029296875,0.9991455078125,5.420684814453125,-4.42626953125,-2.19818115234375,1,1.0,1.0,2.0,1.0,50.00
2021-09-11 01:27:12.146,0.4399947,0.53167063,0.0,0.5843035,0.5554097,0.065238275,0.0,0.4378064,0.7701122,0.40799215,0.0,0.7041676,0.47968516,0.21987824,0.0,0.64665073,0.22943744,-0.3816374,0.0,0.12549418,786.1172,784.5055,747.4359,787.72894,705.5311,0.16741943359375,-0.03497314453125,1.00030517578125,5.839385986328125,-3.581390380859375,-1.966400146484375,1,1.0,1.0,2.0,1.0,50.00
2021-09-11 01:27:12.661,,,,,,,,,,,,,,,,,,,,,,,,,,,,,,,,,,,,,,/muse/elements/blink
2021-09-11 01:27:12.663,0.39759746,0.4546833,0.0,0.47126397,0.5321917,0.03315095,0.0,0.3181415,0.7257158,0.31347454,0.0,0.7041676,0.46711802,0.23519605,0.0,0.6746348,0.2736132,-0.40776035,0.0,0.2634213,705.12823,785.31134,342.08792,740.989,638.24176,0.161865234375,-0.036376953125,1.00335693359375,5.375823974609375,-3.8580322265625,-2.205657958984375,1,1.0,1.0,2.0,1.0,60.00
2021-09-11 01:27:13.170,0.53794783,0.37018442,0.0,0.73406565,0.57988864,0.10719949,0.0,0.59470016,0.7478715,0.35504842,0.0,0.9678346,0.55049497,0.2039425,0.0,0.8398349,0.28933573,-0.39606145,0.0,0.37155345,902.5641,792.1612,1217.6556,848.5714,1143.9194,0.16357421875,-0.03045654296875,1.0018310546875,5.659942626953125,-3.63372802734375,-1.472930908203125,1,1.0,1.0,2.0,1.0,60.00
2021-09-11 01:27:13.704,0.4943832,0.19014616,0.0,0.7831404,0.5160746,0.35632038,0.0,0.625256,0.80323064,0.32304725,0.0,1.0000583,0.674486,0.20337981,0.0,0.93564886,0.19576718,-0.41971347,0.0,0.3664939,867.1062,796.99634,1137.0696,828.8278,868.71796,0.16632080078125,-0.03594970703125,0.994873046875,5.48797607421875,-3.3795166015625,-2.833709716796875,1,1.0,1.0,2.0,1.0,60.00
2021-09-11 01:27:14.237,0.57586527,0.3015195,0.0,0.93769443,0.52057433,0.4437405,0.0,0.6714929,0.814554,0.32584587,0.0,1.0101563,0.71560246,0.23208652,0.0,0.8986294,0.19442178,-0.3262801,0.0,0.2518369,765.9707,778.86444,608.022,769.19415,675.31134,0.15838623046875,-0.02923583984375,0.99786376953125,5.7421875,-3.895416259765625,-2.3626708984375,1,1.0,1.0,4.0,1.0,60.00
2021-09-11 01:27:14.750,0.5562515,0.22435383,0.0,0.8355295,0.41524437,0.3574413,0.0,0.3826941,0.7286677,0.2910625,0.0,0.88704574,0.62504476,0.22936103,0.0,0.674301,0.23294811,-0.3282331,0.0,0.21972904,845.7509,781.28204,1204.359,801.8315,914.2491,0.1568603515625,-0.03350830078125,1.0018310546875,6.0113525390625,-3.9776611328125,-2.325286865234375,1,1.0,1.0,2.0,1.0,60.00
2021-09-11 01:27:15.279,0.704655,0.30901363,0.0,0.83713907,0.42908338,0.23172782,0.0,0.39037734,0.7787665,0.21032155,0.0,0.93619317,0.5865794,0.31384486,0.0,0.65365446,0.25103036,-0.34235463,0.0,0.26446116,727.28937,780.87915,614.0659,789.7436,707.9487,0.15679931640625,-0.0330810546875,0.998779296875,5.360870361328125,-3.7982177734375,-2.51220703125,1,1.0,1.0,4.0,1.0,60.00
2021-09-11 01:27:15.798,0.6073191,0.28952038,0.0,0.6015717,0.47516483,0.23404136,0.0,0.37018958,0.9197727,0.38070217,0.0,0.91978186,0.5840042,0.37971857,0.0,0.73736274,0.24377596,-0.24695314,0.0,0.33381006,701.0989,783.2967,128.13187,756.7033,724.0659,0.1561279296875,-0.03326416015625,0.9970703125,5.510406494140625,-3.6785888671875,-2.03369140625,1,1.0,1.0,2.0,1.0,60.00
2021-09-11 01:27:16.147,,,,,,,,,,,,,,,,,,,,,,,,,,,,,,,,,,,,,,/muse/elements/blink
2021-09-11 01:27:16.338,0.6715742,0.57058406,0.0,0.66425496,0.34821835,0.22866195,0.0,0.3056961,0.93140924,0.49239734,0.0,0.9300977,0.65603924,0.36657038,0.0,0.78361905,0.29709005,-0.21060084,0.0,0.41839895,744.21246,787.326,498.82785,783.2967,671.28204,0.155029296875,-0.03173828125,0.99774169921875,5.443115234375,-3.596343994140625,-2.13836669921875,1,1.0,1.0,4.0,1.0,60.00
2021-09-11 01:27:16.841,0.6511331,0.7521883,0.0,0.7382625,0.45985168,0.30364797,0.0,0.32729596,1.0315284,0.49191344,0.0,0.9279619,0.8390459,0.3212094,0.0,0.78781396,0.3555808,-0.23139535,0.0,0.46092078,843.3333,786.1172,1332.0879,814.3223,871.13556,0.156982421875,-0.02874755859375,0.9957275390625,5.899200439453125,-3.7982177734375,-2.64678955078125,1,1.0,1.0,4.0,1.0,60.00
2021-09-11 01:27:17.350,0.741591,0.82534444,0.0,0.7865129,0.6557307,0.31653938,0.0,0.4547839,0.9147888,0.53565985,0.0,0.8725,0.94331205,0.31949633,0.0,0.7781424,0.29691115,-0.28304708,0.0,0.40356442,727.6923,783.69965,419.8535,781.28204,766.3736,0.15545654296875,-0.028076171875,1.0047607421875,6.198272705078125,-3.880462646484375,-1.80938720703125,1,1.0,1.0,2.0,1.0,60.00
2021-09-11 01:27:17.892,0.64351934,0.69291,0.0,0.6250569,0.7398694,0.2685849,0.0,0.5188829,0.8873693,0.378291,0.0,0.8538343,0.93130404,0.39677376,0.0,0.71647596,0.17196955,-0.22585544,0.0,0.23874101,875.9707,753.8828,1072.6007,826.0073,803.8461,0.1517333984375,-0.034423828125,1.00518798828125,7.1478271484375,1.495361328125,-0.2093505859375,1,1.0,1.0,2.0,1.0,60.00
2021-09-11 01:27:17.991,,,,,,,,,,,,,,,,,,,,,,,,,,,,,,,,,,,,,,/muse/elements/blink
2021-09-11 01:27:18.398,0.5942104,0.72845834,0.0,0.380729,0.60779357,0.3838115,0.0,0.44740212,0.70005125,0.35460854,0.0,0.7075732,0.6363748,0.42599827,0.0,0.70136327,8.761411E-4,-0.10819908,0.0,0.003725192,717.619,784.10254,345.31134,765.16486,678.93774,0.13824462890625,-0.03009033203125,1.01068115234375,5.585174560546875,-3.656158447265625,-1.614990234375,1,1.0,1.0,2.0,1.0,60.00
2021-09-11 01:27:18.914,0.3861763,0.7208309,0.0,0.22604157,0.4160803,0.39612168,0.0,0.41867548,0.3559527,0.30235103,0.0,0.67715937,0.5024972,0.42320088,0.0,0.6925859,-0.16347693,-0.1063877,0.0,-0.043702964,852.6007,776.04395,811.0989,847.3626,963.8095,0.1407470703125,-0.0362548828125,0.998779296875,5.36834716796875,-4.029998779296875,-1.742095947265625,1,1.0,1.0,2.0,1.0,60.00
2021-09-11 01:27:19.442,0.70307636,0.953757,0.0,0.22604157,1.0630832,0.45769405,0.0,0.41867548,0.94692415,0.41366953,0.0,0.67715937,0.71405977,0.31482673,0.0,0.6925859,0.39166927,-0.2620389,0.0,-0.043702964,753.8828,753.0769,709.9634,759.12085,642.674,0.13848876953125,-0.03265380859375,1.00537109375,5.360870361328125,-3.656158447265625,-2.639312744140625,1,1.0,1.0,2.0,1.0,60.00
2021-09-11 01:27:19.968,0.73112273,0.8606687,0.0,0.7378927,0.961335,0.2581924,0.0,0.8490725,0.9711144,0.38305858,0.0,1.0268958,0.62325954,0.3411473,0.0,0.86649686,0.2951822,-0.40182817,0.0,0.14622843,710.7692,781.685,174.8718,755.4945,688.20514,0.14019775390625,-0.03558349609375,1.004150390625,5.93658447265625,-3.768310546875,-2.58697509765625,1,1.0,1.0,2.0,1.0,60.00
2021-09-11 01:27:20.514,0.81238186,0.91072595,0.0,0.8224317,0.81414425,0.29081163,0.0,0.6875771,0.9770679,0.37238356,0.0,1.0364337,0.5441267,0.3368334,0.0,0.7966235,0.25723553,-0.3372506,0.0,0.2975935,731.7216,802.23444,552.4176,787.326,712.381,0.1395263671875,-0.033935546875,1.00189208984375,5.36834716796875,-3.170166015625,-2.1533203125,1,1.0,1.0,4.0,1.0,60.00
2021-09-11 01:27:21.035,0.8988307,0.8767619,0.0,0.9079623,0.3520896,0.45391363,0.0,0.3710575,0.637899,0.38656852,0.0,0.70971817,0.55060065,0.27665663,0.0,0.6354315,0.17101015,-0.31006745,0.0,0.36799547,705.12823,788.5348,101.53846,776.4469,715.6044,0.13726806640625,-0.03399658203125,1.00390625,5.14404296875,-3.611297607421875,-2.572021484375,1,1.0,1.0,4.0,1.0,60.00
2021-09-11 01:27:21.545,0.88884866,0.8043591,0.0,0.9631003,0.21384336,0.47745144,0.0,0.41282603,0.5034969,0.43278846,0.0,0.64729553,0.5927441,0.17389524,0.0,0.633943,0.17349507,-0.23672432,0.0,0.34065992,714.7985,796.99634,456.52014,761.53845,662.8205,0.1414794921875,-0.03204345703125,1.0037841796875,5.6524658203125,-3.506622314453125,-2.549591064453125,1,1.0,1.0,2.0,1.0,60.00
2021-09-11 01:27:22.074,0.844551,0.6423671,0.0,0.8813572,0.32501504,0.4353945,0.0,0.48831236,0.47318193,0.501229,0.0,0.6424695,0.6560845,0.22729295,0.0,0.63133365,0.12085305,-0.21643586,0.0,0.23877,704.3223,786.52014,244.17583,774.83514,603.9927,0.13818359375,-0.0325927734375,1.00244140625,5.96649169921875,-4.074859619140625,-2.205657958984375,1,1.0,1.0,4.0,1.0,60.00
2021-09-11 01:27:22.088,,,,,,,,,,,,,,,,,,,,,,,,,,,,,,,,,,,,,,/muse/elements/blink
2021-09-11 01:27:22.597,1.0226443,0.3763405,0.0,0.77886647,0.77273196,0.13895738,0.0,0.4779991,1.2398432,0.44737643,0.0,0.6397341,0.71237504,0.36319908,0.0,0.6095375,0.07758618,-0.23615462,0.0,0.08428727,896.52014,779.2674,1604.0659,847.76556,967.8388,0.1383056640625,-0.0355224609375,1.00177001953125,5.33843994140625,-3.790740966796875,-2.46734619140625,1,1.0,1.0,2.0,1.0,60.00
2021-09-11 01:27:23.113,1.0697441,0.39044902,0.0,0.67679614,0.87796354,-0.11458731,0.0,0.54391754,1.2398432,0.34252343,0.0,0.75357956,0.77524287,0.35865933,0.0,0.7725812,0.0985329,-0.33979204,0.0,0.12600611,816.337,782.0879,1122.1611,809.89014,770.80585,0.135986328125,-0.03375244140625,1.00457763671875,5.375823974609375,-3.641204833984375,-2.370147705078125,1,1.0,1.0,2.0,1.0,50.00
2021-09-11 01:27:23.641,1.0553973,0.43924767,0.0,0.8740131,0.86669886,-0.0049992884,0.0,0.49580526,1.2398432,0.2134986,0.0,0.7971169,0.7757071,0.27804905,0.0,0.8349945,0.23879164,-0.41653344,0.0,0.038882125,796.99634,779.2674,532.674,815.12823,650.32965,0.14056396484375,-0.03521728515625,1.00384521484375,5.181427001953125,-3.60382080078125,-2.160797119140625,1,1.0,1.0,2.0,1.0,50.00
2021-09-11 01:27:24.160,1.0564642,0.6088362,0.0,0.8740131,0.88085896,0.2709528,0.0,0.49580526,1.1349893,0.1964405,0.0,0.7971169,0.7328016,0.17911513,0.0,0.8349945,0.33429366,-0.43184605,0.0,0.038882125,855.82416,787.326,986.77655,833.2601,948.9011,0.14404296875,-0.03314208984375,1.00299072265625,5.540313720703125,-4.239349365234375,-2.82623291015625,1,1.0,1.0,2.0,1.0,50.00
2021-09-11 01:27:24.211,,,,,,,,,,,,,,,,,,,,,,,,,,,,,,,,,,,,,,/muse/elements/blink
2021-09-11 01:27:24.678,1.155258,0.81524324,0.0,0.8740131,0.9718643,0.41134712,0.0,0.49580526,1.1349893,0.33926633,0.0,0.7971169,0.7238109,0.19204338,0.0,0.8349945,0.3540592,-0.2393632,0.0,0.038882125,790.9524,778.0586,1277.2894,791.75824,724.0659,0.150146484375,-0.035400390625,1.00408935546875,5.570220947265625,-4.38140869140625,-1.682281494140625,1,1.0,1.0,4.0,1.0,50.00
2021-09-11 01:27:25.194,1.2387805,0.8798374,0.0,0.50819635,0.8069923,0.021804607,0.0,0.33650908,1.1342849,0.2996671,0.0,0.7509106,0.5415225,0.1814207,0.0,0.79490614,0.22090931,-0.09096436,0.0,0.43160927,721.6484,791.3553,963.00366,772.8205,694.2491,0.1453857421875,-0.03759765625,1.00445556640625,5.988922119140625,-3.6187744140625,-2.70660400390625,1,1.0,1.0,4.0,1.0,50.00
2021-09-11 01:27:25.699,1.0538291,0.8182235,0.0,0.78920335,-0.035465404,0.17269097,0.0,0.24796668,0.98789656,0.7123694,0.0,0.8785949,0.5272301,0.1823943,0.0,0.75726277,0.23605706,-0.15706046,0.0,0.3535799,714.3956,786.52014,363.04028,758.315,644.68866,0.14666748046875,-0.03375244140625,1.00274658203125,5.973968505859375,-3.865509033203125,-2.16827392578125,1,1.0,1.0,4.0,1.0,50.00
2021-09-11 01:27:26.227,0.9147057,0.62571645,0.0,0.80972975,0.2191328,0.24492112,0.0,0.2031265,1.0008106,0.7342038,0.0,0.7921046,0.49135727,0.21999115,0.0,0.6496988,0.27958983,-0.25411737,0.0,0.3236616,769.59705,786.1172,1105.641,783.69965,755.89746,0.14447021484375,-0.0316162109375,1.00543212890625,5.33843994140625,-4.05242919921875,-2.40753173828125,1,1.0,1.0,4.0,1.0,50.00
2021-09-11 01:27:26.729,0.7667828,0.37485656,0.0,0.8034548,0.43599364,0.3803965,0.0,0.26333505,1.0167085,0.7342038,0.0,0.6891736,0.48028207,0.24723549,0.0,0.50808805,0.29210004,-0.31580144,0.0,0.2838643,879.19415,788.5348,1354.249,837.6923,1021.02563,0.1451416015625,-0.035400390625,1.0045166015625,5.99639892578125,-4.089813232421875,-2.071075439453125,1,1.0,1.0,4.0,1.0,50.00
2021-09-11 01:27:27.256,0.6732071,0.1680321,0.0,0.7086711,0.52616704,0.3100344,0.0,0.30293322,1.0202823,0.6961189,0.0,1.0933512,0.4446855,0.4288328,0.0,0.44359097,0.2256014,-0.3343113,0.0,0.2522365,730.10986,799.011,282.05127,783.2967,747.4359,0.14105224609375,-0.03289794921875,1.00042724609375,5.809478759765625,-4.05242919921875,-2.1234130859375,1,1.0,1.0,2.0,1.0,50.00
2021-09-11 01:27:27.776,0.99615854,0.15039636,0.0,0.6241274,0.6803955,0.23155081,0.0,0.5040809,1.1204708,0.42183784,0.0,1.2361501,0.54930055,0.5117297,0.0,0.5674763,0.20214519,-0.32493755,0.0,0.25049746,821.978,804.65204,802.23444,801.4286,740.989,0.14501953125,-0.03839111328125,1.0008544921875,5.615081787109375,-3.96270751953125,-2.190704345703125,1,1.0,1.0,2.0,1.0,50.00
2021-09-11 01:27:28.293,1.0326258,0.38711274,0.0,0.5625602,0.60828185,0.07979226,0.0,0.5483336,1.1204708,0.42948112,0.0,1.2361501,0.6256454,0.525406,0.0,0.56916386,0.23640439,-0.3148224,0.0,0.24554557,745.0183,787.326,413.4066,778.86444,619.304,0.14385986328125,-0.0333251953125,1.0054931640625,5.540313720703125,-4.05242919921875,-2.0635986328125,1,1.0,1.0,4.0,1.0,50.00
2021-09-11 01:27:28.809,0.9361781,0.42953682,0.0,0.3419459,0.68311936,0.3213155,0.0,0.61558044,1.1119024,0.5585155,0.0,1.2113898,0.73315006,0.3082331,0.0,0.58054054,0.28848335,-0.19769673,0.0,0.28982976,707.1429,790.14655,369.8901,751.4652,646.30035,0.1463623046875,-0.03424072265625,0.99755859375,5.630035400390625,-3.805694580078125,-2.0635986328125,1,1.0,1.0,4.0,1.0,50.00
2021-09-11 01:27:29.319,0.49635816,0.48985967,0.0,0.24520434,0.5390444,0.43009442,0.0,0.5105962,0.833703,0.543078,0.0,0.663556,0.68436265,0.12474125,0.0,0.5611894,0.25397757,-0.21406218,0.0,0.30626157,758.315,792.5641,732.1245,780.07324,835.2747,0.14581298828125,-0.03277587890625,1.00042724609375,5.84686279296875,-3.63372802734375,-2.88604736328125,1,1.0,1.0,4.0,1.0,50.00
2021-09-11 01:27:29.822,,,,,,,,,,,,,,,,,,,,,,,,,,,,,,,,,,,,,,/muse/elements/blink
2021-09-11 01:27:29.865,0.4592318,0.5500916,0.0,0.4805416,0.6588028,0.43875098,0.0,0.59757894,0.8420181,0.543078,0.0,0.6830013,0.6741849,0.11446528,0.0,0.55790496,0.17299287,-0.34724072,0.0,0.2508647,856.2271,787.326,1444.1025,811.0989,886.04395,0.15087890625,-0.03143310546875,1.005859375,5.75714111328125,-4.1571044921875,-2.370147705078125,1,1.0,1.0,4.0,1.0,50.00
2021-09-11 01:27:30.379,0.8607199,0.8562011,0.0,0.8944304,0.722721,0.620926,0.0,0.7835596,0.793577,0.67935055,0.0,0.6900687,0.61921275,0.31943503,0.0,0.59645325,0.09150731,-0.51068926,0.0,0.20690212,915.4579,779.2674,1588.7546,861.4652,990.0,0.14752197265625,-0.03125,1.00299072265625,5.510406494140625,-3.850555419921875,-2.10845947265625,1,1.0,1.0,2.0,1.0,50.00
2021-09-11 01:27:30.920,1.0752642,1.0102216,0.0,1.096537,0.8271838,0.68549067,0.0,0.9175469,0.6316872,0.6583008,0.0,0.6015535,0.6851895,0.43661305,0.0,0.6420353,-0.05308842,-0.54595983,0.0,0.046778664,871.13556,780.07324,1005.31134,840.9158,927.1429,0.14642333984375,-0.0350341796875,1.000244140625,5.360870361328125,-3.760833740234375,-2.639312744140625,1,1.0,1.0,4.0,1.0,50.00
2021-09-11 01:27:30.982,,,,,,,,,,,,,,,,,,,,,,,,,,,,,,,,,,,,,,/muse/elements/blink
2021-09-11 01:27:31.450,1.292553,1.1249142,0.0,1.3095919,0.9657658,0.9167833,0.0,1.1067334,0.6087884,0.68971765,0.0,0.5633314,0.771974,0.5447167,0.0,0.7611322,-0.12934804,-0.27453548,0.0,0.019929493,909.011,795.78754,44.322346,834.4689,892.0879,0.1480712890625,-0.02850341796875,1.00360107421875,5.9814453125,-4.224395751953125,-1.8243408203125,1,1.0,1.0,2.0,1.0,50.00
2021-09-11 01:27:31.989,1.1421139,0.42846072,0.0,0.5285469,0.26157424,0.09521776,0.0,0.49515402,0.69417864,0.3270795,0.0,0.62255377,0.52387017,0.18225008,0.0,0.8870978,0.120874345,-0.17799859,0.0,0.21171208,854.61536,793.36993,1214.0293,791.3553,846.9597,0.15130615234375,-0.0355224609375,0.99688720703125,5.854339599609375,-4.50103759765625,-1.65985107421875,1,1.0,1.0,4.0,1.0,50.00
2021-09-11 01:27:32.143,,,,,,,,,,,,,,,,,,,,,,,,,,,,,,,,,,,,,,/muse/elements/blink
2021-09-11 01:27:32.515,1.1444788,0.5981219,0.0,0.5874001,0.52237636,0.12300172,0.0,0.512122,1.508593,0.77372277,0.0,1.3132071,0.54342306,0.29402274,0.0,0.7943493,0.0539761,-0.1372989,0.0,0.09255618,883.22345,801.4286,4.029304,840.10986,956.9597,0.151123046875,-0.02581787109375,0.9989013671875,5.84686279296875,-3.775787353515625,-1.86920166015625,1,1.0,1.0,2.0,1.0,50.00
2021-09-11 01:27:32.981,,,,,,,,,,,,,,,,,,,,,,,,,,,,,,,,,,,,,,/muse/elements/blink
2021-09-11 01:27:33.049,1.1195022,0.72330254,0.0,0.56165427,0.57587093,0.12864527,0.0,0.6081769,1.5308969,0.78023744,0.0,1.3323735,0.5952234,0.2743584,0.0,0.71463937,0.06518273,-0.17763105,0.0,0.13960862,867.1062,793.7729,1330.4762,826.8132,841.7216,0.1558837890625,-0.03643798828125,1.00115966796875,5.48797607421875,-4.104766845703125,-2.325286865234375,1,1.0,1.0,2.0,1.0,50.00
2021-09-11 01:27:33.554,1.0321484,0.67022425,0.0,0.5607347,0.71242183,0.22805998,0.0,0.77689236,1.5574436,0.80587155,0.0,1.3438791,0.69805413,0.2805707,0.0,0.6571243,0.049546357,-0.24323116,0.0,0.22752152,888.86444,782.49084,1561.7583,838.0952,929.15753,0.1552734375,-0.02972412109375,1.000244140625,5.42816162109375,-3.521575927734375,-2.026214599609375,1,1.0,1.0,2.0,1.0,55.00
2021-09-11 01:27:34.085,0.8426482,0.6689851,0.0,0.4873028,0.654378,0.38208756,0.0,0.8045764,1.5449351,0.7764521,0.0,1.2539629,0.6698076,0.20514885,0.0,0.6277159,0.073320106,-0.17155425,0.0,0.2508247,718.4249,783.2967,267.14285,772.01465,903.7729,0.14910888671875,-0.0345458984375,1.00408935546875,5.4730224609375,-3.386993408203125,-2.40753173828125,1,1.0,1.0,4.0,1.0,55.00
2021-09-11 01:27:34.614,0.6710447,0.60130745,0.0,0.62042207,0.63773406,0.4593136,0.0,0.79115444,1.3592175,0.6477429,0.0,1.1742951,0.6020596,0.23655003,0.0,0.5828648,0.10854723,-0.14150818,0.0,0.23496173,736.1539,797.8022,314.68866,767.5824,866.7033,0.14739990234375,-0.034912109375,1.00030517578125,5.256195068359375,-3.745880126953125,-2.026214599609375,1,1.0,1.0,4.0,1.0,55.00
2021-09-11 01:27:35.139,0.7065748,0.8203814,0.0,0.5691307,0.45543924,0.65465033,0.0,0.5755274,0.8613506,0.8819059,0.0,0.6641704,0.4296183,0.3439566,0.0,0.4908264,0.12711452,-0.09078843,0.0,0.1435177,734.1392,796.1905,328.38828,772.01465,531.06226,0.1448974609375,-0.0330810546875,1.0001220703125,5.734710693359375,-3.768310546875,-2.086029052734375,1,1.0,1.0,2.0,1.0,55.00
2021-09-11 01:27:35.677,0.69065994,0.7953284,0.0,0.57395506,0.3162767,0.5422753,0.0,0.37378162,0.8612752,0.90236497,0.0,0.70826656,0.44837025,0.36108774,0.0,0.4850821,0.14678587,-0.17800063,0.0,0.19941409,705.9341,784.5055,405.75092,772.4176,659.59705,0.14276123046875,-0.03515625,0.9993896484375,5.016937255859375,-4.119720458984375,-2.100982666015625,1,1.0,1.0,2.0,1.0,55.00
2021-09-11 01:27:36.188,0.6130405,0.7612751,0.0,0.3540502,0.2553676,0.55979764,0.0,0.15952341,0.7679186,0.9473343,0.0,0.56544626,0.56372774,0.3741188,0.0,0.51508677,0.16183306,-0.22755136,0.0,0.18734819,720.0366,781.28204,729.707,755.09155,616.8865,0.1490478515625,-0.0335693359375,1.0018310546875,5.704803466796875,-3.170166015625,-2.1533203125,1,1.0,1.0,4.0,1.0,55.00
2021-09-11 01:27:36.708,0.70194656,0.6171282,0.0,0.359998,0.41235057,0.26910484,0.0,0.15260974,0.7339949,0.73480505,0.0,0.677282,0.7055225,0.3621216,0.0,0.6989132,0.18296939,-0.32657543,0.0,0.14257124,701.50183,789.7436,467.39926,763.1502,633.4066,0.1512451171875,-0.03466796875,1.00225830078125,5.9515380859375,-3.895416259765625,-2.3626708984375,1,1.0,1.0,4.0,1.0,55.00
2021-09-11 01:27:37.227,0.8000053,0.6028219,0.0,0.29485258,0.4934525,0.26177904,0.0,0.13085958,0.88344085,0.76269764,0.0,0.9407125,0.73855865,0.3403567,0.0,0.68309087,0.1898626,-0.20121664,0.0,0.09594558,875.16486,796.99634,1316.3737,841.7216,844.1392,0.146240234375,-0.03680419921875,1.0035400390625,5.62255859375,-3.22998046875,-2.55706787109375,1,1.0,1.0,4.0,1.0,55.00
2021-09-11 01:27:37.743,0.97654724,0.50313836,0.0,0.58311665,0.7264872,0.12666197,0.0,0.35046467,0.93892485,0.6280082,0.0,0.98934525,0.63657814,0.301645,0.0,0.6738961,0.30554816,-0.07329673,0.0,0.22893216,880.80585,784.90845,1625.4213,853.4066,1007.326,0.1417236328125,-0.0328369140625,1.00213623046875,5.674896240234375,-4.08233642578125,-1.996307373046875,1,1.0,1.0,4.0,1.0,55.00
2021-09-11 01:27:37.839,,,,,,,,,,,,,,,,,,,,,,,,,,,,,,,,,,,,,,/muse/elements/blink
2021-09-11 01:27:38.270,1.0824759,0.38128772,0.0,0.59283584,0.88079804,0.1936266,0.0,0.44114974,0.9542954,0.65615684,0.0,1.0258493,0.51513636,0.31063396,0.0,0.5565677,0.24060023,0.0073740077,0.0,0.19490403,852.6007,794.9817,1164.0659,824.3956,811.0989,0.15130615234375,-0.03460693359375,0.9996337890625,5.39825439453125,-3.51409912109375,-2.22808837890625,1,1.0,1.0,2.0,1.0,55.00
2021-09-11 01:27:38.794,1.0364811,0.43642238,0.0,0.6128914,0.8524423,0.63132614,0.0,0.44413072,1.0028731,0.80694324,0.0,1.005776,0.55860955,0.46592075,0.0,0.5578979,0.24251477,-0.041201837,0.0,0.19976035,754.68866,789.7436,537.1062,784.5055,812.71063,0.142578125,-0.0413818359375,1.0030517578125,6.0711669921875,-3.9178466796875,-1.353302001953125,1,1.0,1.0,4.0,1.0,55.00
2021-09-11 01:27:39.312,0.9570993,0.54864675,0.0,0.40873757,0.73566395,0.7485905,0.0,0.31833646,0.9688377,0.7854788,0.0,1.0350248,0.8066879,0.47524455,0.0,0.7063723,0.14602081,-0.09209111,0.0,0.16228029,702.3077,782.8938,337.25275,753.8828,603.5897,0.14208984375,-0.0372314453125,1.00030517578125,5.435638427734375,-4.11224365234375,-2.691650390625,1,1.0,1.0,4.0,1.0,55.00
2021-09-11 01:27:39.838,0.74508435,0.6378243,0.0,0.31263572,0.40000528,0.7433248,0.0,0.17306396,0.74159086,0.79697156,0.0,1.1091684,0.915214,0.45945987,0.0,0.7651324,0.26275554,-0.11488248,0.0,0.29574645,759.92676,773.6264,470.6227,774.43225,746.2271,0.145263671875,-0.04107666015625,0.99810791015625,5.585174560546875,-4.0972900390625,-2.235565185546875,1,1.0,1.0,4.0,1.0,55.00
2021-09-11 01:27:40.184,,,,,,,,,,,,,,,,,,,,,,,,,,,,,,,,,,,,,,/muse/elements/blink
2021-09-11 01:27:40.346,1.017773,0.5622069,0.0,0.26257813,1.0278761,0.4246846,0.0,0.39441112,1.9387412,1.0964545,0.0,1.2712137,0.85790986,0.3334156,0.0,0.87992454,0.25974014,-0.07733272,0.0,0.25261208,713.9927,798.60803,275.6044,766.3736,555.2381,0.14892578125,-0.0360107421875,1.00311279296875,5.48797607421875,-3.970184326171875,-2.40753173828125,1,1.0,1.0,2.0,1.0,55.00
2021-09-11 01:27:40.861,1.0577651,0.5890902,0.0,0.28087375,1.1270019,0.42200235,0.0,0.5500641,1.9387412,1.0964545,0.0,1.1970515,0.69034654,0.34660423,0.0,0.85905,0.24229366,-0.04325802,0.0,0.21411683,901.75824,772.8205,1539.597,858.24176,898.1319,0.1500244140625,-0.03955078125,1.0001220703125,5.5926513671875,-4.972076416015625,-3.27484130859375,1,1.0,1.0,2.0,1.0,55.00
2021-09-11 01:27:40.881,,,,,,,,,,,,,,,,,,,,,,,,,,,,,,,,,,,,,,/muse/elements/blink
2021-09-11 01:27:41.394,1.1559397,0.53643376,0.0,0.33284572,1.270189,0.51840276,0.0,0.69987696,1.9387412,1.0798098,0.0,1.1958098,0.57241154,0.34931666,0.0,0.89783424,0.18831575,-0.027540239,0.0,0.08390516,807.8755,782.0879,806.26373,793.36993,736.9597,0.163818359375,-0.03680419921875,0.99969482421875,5.794525146484375,-3.6785888671875,-2.444915771484375,1,1.0,1.0,2.0,1.0,55.00
2021-09-11 01:27:41.934,1.0127206,0.5406287,0.0,0.3745666,1.1160183,0.48117787,0.0,0.82053345,1.8794298,1.0383377,0.0,0.9445418,0.5053605,0.26984942,0.0,0.8274583,0.102022715,-0.0063605984,0.0,0.085332364,711.1722,789.34064,175.67766,780.07324,732.1245,0.16632080078125,-0.03289794921875,0.99493408203125,6.20574951171875,-3.51409912109375,-1.532745361328125,1,1.0,1.0,4.0,1.0,55.00
2021-09-11 01:27:42.468,0.5411676,0.444446,0.0,0.57365245,0.5892033,0.106989,0.0,0.56436664,1.1097604,0.73419434,0.0,0.90992355,0.810994,0.5034336,0.0,0.74482584,0.26528865,-0.23037328,0.0,0.34205887,799.81683,792.96704,559.67035,796.5934,939.2308,0.16021728515625,-0.03033447265625,0.9991455078125,5.869293212890625,-3.289794921875,-2.100982666015625,1,1.0,1.0,4.0,1.0,55.00
2021-09-11 01:27:43.000,0.44222656,0.35045955,0.0,0.7149682,0.5010396,0.15379708,0.0,0.52079856,1.1106333,0.7626145,0.0,0.93233955,0.7028187,0.43089294,0.0,0.6933491,0.24759744,-0.18963848,0.0,0.32903323,732.1245,802.6374,82.60073,796.5934,1081.8682,0.16436767578125,-0.0318603515625,0.99859619140625,5.6524658203125,-3.805694580078125,-2.28790283203125,1,1.0,1.0,4.0,1.0,55.00
2021-09-11 01:27:43.531,0.38899058,0.31009543,0.0,0.60591656,0.42710966,0.22841027,0.0,0.46314278,1.1106333,0.81195277,0.0,0.9684055,0.6644425,0.48402563,0.0,0.6388633,0.14745916,-0.20331581,0.0,0.28004676,777.6557,790.9524,631.79486,784.5055,699.4872,0.15966796875,-0.03173828125,0.9981689453125,5.854339599609375,-3.521575927734375,-1.77947998046875,1,1.0,1.0,4.0,1.0,60.00
2021-09-11 01:27:44.044,0.26967928,0.1583501,0.0,0.4214664,0.14625277,0.27178192,0.0,0.43013033,0.73354846,0.6336823,0.0,0.8112701,0.48517996,0.3554238,0.0,0.5387013,0.12946579,-0.2882706,0.0,0.22606157,715.2015,786.9231,189.78021,772.4176,603.5897,0.15765380859375,-0.03363037109375,1.003662109375,5.323486328125,-3.865509033203125,-2.0635986328125,1,1.0,1.0,4.0,1.0,60.00
2021-09-11 01:27:44.570,0.41692957,0.09124384,0.0,0.074370414,0.22373058,0.18803373,0.0,0.48725367,0.6671211,0.52627087,0.0,0.6991662,0.5933504,0.2966613,0.0,0.67922753,0.1467139,-0.3934679,0.0,0.23191129,755.4945,797.3993,839.304,790.9524,695.05493,0.16070556640625,-0.03253173828125,1.00115966796875,5.914154052734375,-3.192596435546875,-1.51031494140625,1,1.0,1.0,4.0,1.0,60.00
2021-09-11 01:27:45.098,0.69059765,0.2629722,0.0,0.50061536,0.47264865,0.11023605,0.0,0.54410744,0.8017551,0.42630023,0.0,0.8364952,0.6248227,0.3449573,0.0,0.7956466,0.26851773,-0.37302983,0.0,0.314387,855.82416,778.0586,1351.4286,828.8278,1014.9817,0.1536865234375,-0.0316162109375,0.999267578125,5.86181640625,-4.29168701171875,-2.026214599609375,1,1.0,1.0,4.0,1.0,60.00
2021-09-11 01:27:45.626,1.0331074,0.58038354,0.0,1.0893371,0.6408034,0.23578303,0.0,0.57328767,0.8017551,0.39919338,0.0,1.0689678,0.6768759,0.43002886,0.0,0.851649,0.28819412,-0.35091332,0.0,0.38505983,767.5824,790.14655,932.7839,777.25275,689.011,0.15924072265625,-0.02960205078125,1.00616455078125,5.644989013671875,-3.768310546875,-2.549591064453125,1,1.0,1.0,4.0,1.0,60.00
2021-09-11 01:27:46.142,1.1534041,0.8248124,0.0,1.217323,0.7344095,0.40219107,0.0,0.6540661,0.7537211,0.56662005,0.0,1.0689678,0.61089104,0.50977224,0.0,0.82157034,0.3172211,-0.2408093,0.0,0.33444753,781.685,782.8938,836.8865,783.69965,651.9414,0.15179443359375,-0.02984619140625,1.0006103515625,5.510406494140625,-3.611297607421875,-2.19818115234375,1,1.0,1.0,4.0,1.0,60.00
2021-09-11 01:27:46.647,1.0659491,0.9425021,0.0,1.1953492,0.5469816,0.36958843,0.0,0.66312665,0.53072923,0.66496956,0.0,1.0689678,0.5714431,0.31373173,0.0,0.77122414,0.16110702,-0.24386409,0.0,0.20400031,865.89746,780.4762,1088.3151,833.663,1025.4579,0.1522216796875,-0.03216552734375,1.00567626953125,6.033782958984375,-4.269256591796875,-2.07855224609375,1,1.0,1.0,4.0,1.0,60.00
2021-09-11 01:27:47.181,0.7133705,0.8237842,0.0,1.0484667,0.374547,0.26146975,0.0,0.5785466,0.6244161,0.66496956,0.0,0.95109254,0.5150738,0.27595666,0.0,0.67832524,0.09568795,-0.27433318,0.0,0.12818775,757.9121,781.685,293.33334,785.7143,688.20514,0.1549072265625,-0.02923583984375,1.00030517578125,5.375823974609375,-3.6785888671875,-1.801910400390625,1,1.0,1.0,4.0,1.0,60.00
2021-09-11 01:27:47.481,,,,,,,,,,,,,,,,,,,,,,,,,,,,,,,,,,,,,,/muse/elements/blink
2021-09-11 01:27:47.704,0.6790487,0.74878615,0.0,0.6176551,0.32138798,0.36134738,0.0,0.34185693,0.63672924,0.56774205,0.0,0.6449697,0.4445998,0.29370245,0.0,0.5794088,-0.011671578,-0.36310747,0.0,0.12218247,721.2454,789.7436,164.79854,769.19415,644.2857,0.154052734375,-0.02447509765625,1.00238037109375,5.689849853515625,-3.805694580078125,-1.614990234375,1,1.0,1.0,4.0,1.0,60.00
2021-09-11 01:27:48.232,0.66500545,0.66950786,0.0,0.497181,0.31325725,0.47933656,0.0,0.1768087,0.56304234,0.28837812,0.0,0.43474418,0.39181805,0.31244862,0.0,0.51806605,-0.15341017,-0.3789115,0.0,0.148812,757.50916,770.80585,676.9231,785.31134,763.1502,0.1556396484375,-0.027587890625,1.00177001953125,5.166473388671875,-3.985137939453125,-2.51220703125,1,1.0,1.0,4.0,1.0,60.00
2021-09-11 01:27:48.745,0.6276109,0.57247466,0.0,0.43185157,0.32093763,-0.118554726,0.0,0.16129649,0.471679,0.32124668,0.0,0.41496444,0.37979206,0.341294,0.0,0.5545476,-0.1990695,-0.42102,0.0,0.12049693,883.6264,776.4469,1620.586,839.304,799.81683,0.153564453125,-0.0333251953125,1.00457763671875,5.443115234375,-4.05242919921875,-2.086029052734375,1,1.0,1.0,4.0,1.0,60.00
2021-09-11 01:27:49.274,0.6257918,0.7477651,0.0,0.5389595,-0.04509488,-0.31326625,0.0,0.051577084,0.4141294,0.35140693,0.0,0.14523265,0.5270672,0.3131712,0.0,0.54936236,0.17862058,-0.4075598,0.0,0.06993459,813.5165,755.4945,1061.3187,805.05493,838.9011,0.15704345703125,-0.0296630859375,1.00201416015625,6.093597412109375,-3.671112060546875,-2.332763671875,1,1.0,1.0,4.0,1.0,60.00
2021-09-11 01:27:49.792,0.5031568,0.85530466,0.0,0.4574554,0.10602288,0.08872706,0.0,0.28045005,0.44494325,0.45084402,0.0,0.44387707,0.45959038,0.28365105,0.0,0.47173244,0.082783826,-0.39984068,0.0,0.0660178,677.326,838.49817,679.7436,689.011,713.9927,0.1678466796875,-0.0247802734375,1.008544921875,6.063690185546875,-2.534637451171875,-3.058013916015625,1,1.0,1.0,4.0,1.0,60.00
2021-09-11 01:27:49.932,,,,,,,,,,,,,,,,,,,,,,,,,,,,,,,,,,,,,,/muse/elements/blink
2021-09-11 01:27:50.319,0.31848076,0.9277011,0.0,0.29590037,0.10271636,0.18256836,0.0,0.33678216,0.4318262,0.4317211,0.0,0.44387707,0.476024,0.25889707,0.0,0.42554688,-0.06867994,-0.393972,0.0,0.057994343,697.8755,779.67035,203.88278,761.53845,593.1135,0.16839599609375,-0.025634765625,1.015380859375,4.269256591796875,-7.13287353515625,-3.401947021484375,1,1.0,1.0,4.0,1.0,60.00
2021-09-11 01:27:50.833,0.18254182,1.0132704,0.0,0.28333774,0.2733988,0.43261433,0.0,0.49935353,0.22396311,0.2178964,0.0,0.4200481,0.3235398,0.21780993,0.0,0.30859193,-0.13550645,-0.38480225,0.0,0.05967651,748.24176,786.52014,414.6154,784.90845,654.7619,0.0362548828125,-0.05230712890625,0.99810791015625,13.53302001953125,-0.55328369140625,3.63372802734375,1,1.0,1.0,4.0,1.0,60.00
2021-09-11 01:27:51.357,0.65014505,0.79983664,0.0,0.35252646,0.9619304,0.65956223,0.0,0.34596813,1.4644668,0.51834446,0.0,0.64914817,0.49085414,0.28974828,0.0,0.59714353,0.20489325,-0.39916256,0.0,-0.08201225,692.6374,775.64105,460.54944,761.9414,590.293,0.11566162109375,-0.02496337890625,1.016845703125,5.682373046875,-8.067474365234375,-0.441131591796875,1,1.0,1.0,2.0,1.0,60.00
2021-09-11 01:27:51.875,,,,,,,,,,,,,,,,,,,,,,,,,,,,,,,,,,,,,,/muse/elements/blink
2021-09-11 01:27:51.878,0.67037076,0.719008,0.0,0.43176803,0.8744869,0.75368106,0.0,0.33889985,1.4644668,0.51834446,0.0,0.6704409,0.41433907,0.26147577,0.0,0.58103675,0.1995021,-0.27824786,0.0,-0.06707037,845.7509,790.54944,1239.011,821.5751,976.7033,0.1463623046875,-0.02935791015625,0.99969482421875,4.747772216796875,-6.871185302734375,-0.657958984375,1,1.0,1.0,2.0,1.0,60.00
2021-09-11 01:27:52.395,0.67037076,1.0680714,0.0,0.43176803,0.8744869,1.1638837,0.0,0.33889985,1.4644668,0.90459853,0.0,0.6704409,0.41433907,0.30739835,0.0,0.58103675,0.1995021,-0.19855675,0.0,-0.06707037,905.38464,792.96704,781.685,844.94507,1479.5604,0.1629638671875,0.00396728515625,1.0050048828125,5.241241455078125,-4.613189697265625,-2.07855224609375,1,1.0,1.0,2.0,1.0,60.00
2021-09-11 01:27:52.928,0.6686656,1.049794,0.0,0.50149673,0.74433976,1.1416007,0.0,0.35903516,0.86151224,0.8877463,0.0,0.4703919,0.31783068,0.27900776,0.0,0.51778376,0.20079012,-0.15205507,0.0,-0.08173279,815.9341,785.7143,832.8571,799.81683,693.44324,0.16815185546875,-0.01104736328125,1.0040283203125,5.555267333984375,-4.246826171875,-2.58697509765625,1,1.0,1.0,2.0,1.0,60.00
2021-09-11 01:27:53.454,0.5348701,1.1171913,0.0,0.33043712,0.4326097,1.08637,0.0,0.5893091,0.60264796,0.8814794,0.0,0.66263616,0.57219785,0.2604524,0.0,0.41552725,0.136587,-0.12933768,0.0,0.009841081,893.69965,763.95605,723.2601,842.52747,1201.1355,0.166015625,-0.01190185546875,0.9996337890625,5.031890869140625,-3.925323486328125,-2.639312744140625,1,1.0,1.0,2.0,1.0,60.00
2021-09-11 01:27:53.973,0.7189691,0.85208994,0.0,0.6166671,0.5994901,0.3870457,0.0,0.73179793,0.6503408,0.57860726,0.0,0.6958805,0.71194476,0.14496319,0.0,0.544157,0.23330578,-0.100254916,0.0,0.092775404,766.77655,774.43225,535.4945,799.81683,608.022,0.1689453125,6.103515625E-5,0.99884033203125,5.241241455078125,-3.00567626953125,-0.7476806640625,1,1.0,1.0,2.0,1.0,55.00
2021-09-11 01:27:54.517,0.6563818,0.84251666,0.0,0.5352993,0.5410388,0.35069412,0.0,0.6489627,0.6503408,0.39329803,0.0,0.7264122,0.66010714,0.12542139,0.0,0.520192,0.3345095,-0.09602658,0.0,0.18887147,703.1135,780.4762,343.69965,778.86444,686.99634,0.16461181640625,-0.00732421875,0.9947509765625,5.869293212890625,-3.81317138671875,-3.416900634765625,1,1.0,1.0,2.0,1.0,55.00
2021-09-11 01:27:55.023,0.56836677,0.76924336,0.0,0.48699653,0.3801656,0.26834327,0.0,0.56517917,0.60354066,0.3959542,0.0,0.6858894,0.49380443,0.12975243,0.0,0.51583,0.36954743,-0.18430272,0.0,0.2953011,745.0183,770.0,223.22345,813.1135,642.27106,0.165771484375,-0.01123046875,1.0068359375,5.988922119140625,-4.0374755859375,-2.7215576171875,1,1.0,1.0,2.0,1.0,55.00
2021-09-11 01:27:55.541,0.7374814,0.9781044,0.0,0.5701571,0.23892975,0.30393073,0.0,0.46782055,0.54846954,0.5042983,0.0,0.926501,0.40489703,0.12890364,0.0,0.508679,0.264011,-0.3010674,0.0,0.2890628,931.1722,801.02563,1581.0989,860.2564,853.00366,0.1676025390625,-0.01055908203125,1.0009765625,5.39825439453125,-4.88983154296875,-2.88604736328125,1,1.0,1.0,2.0,1.0,55.00
2021-09-11 01:27:56.079,0.7401609,1.055665,0.0,0.66656804,0.269539,0.42608336,0.0,0.48085004,0.59934574,0.47757724,0.0,0.9841682,0.46194482,0.14303336,0.0,0.61041605,0.2562221,-0.3060605,0.0,0.31137988,854.61536,792.1612,803.8461,871.13556,688.60803,0.17138671875,-0.0096435546875,1.00079345703125,6.661834716796875,-2.893524169921875,-2.564544677734375,1,1.0,1.0,2.0,1.0,55.00
2021-09-11 01:27:56.594,1.1203318,1.1824282,0.0,1.2098241,0.6141214,0.5573108,0.0,0.64467406,0.9772673,0.562635,0.0,1.1769476,0.6105767,0.19541754,0.0,0.8124893,0.40047574,-0.16642733,0.0,0.48708457,895.31134,776.04395,1177.7656,843.3333,701.50183,0.15667724609375,-0.01513671875,1.000244140625,6.08612060546875,-3.7982177734375,-2.100982666015625,1,1.0,1.0,2.0,1.0,55.00
2021-09-11 01:27:57.118,1.1493448,1.1945,0.0,1.2342948,0.71503574,0.5484932,0.0,0.66588306,0.9715587,0.4960212,0.0,1.174381,0.66455966,0.24069557,0.0,0.83234876,0.52185524,-0.15924005,0.0,0.5463332,785.7143,803.8461,638.24176,836.8865,829.6337,0.16021728515625,-0.009033203125,0.9991455078125,5.62255859375,-5.93658447265625,-2.10845947265625,1,1.0,1.0,2.0,1.0,55.00
2021-09-11 01:27:57.672,1.2038598,1.2532595,0.0,1.3288205,0.6992196,0.4933347,0.0,0.67632586,0.9608548,0.4588478,0.0,1.1114253,0.5608448,0.2594109,0.0,0.7140116,0.3936612,-0.1929108,0.0,0.48076192,760.32965,787.326,106.37363,802.6374,728.9011,0.16986083984375,-0.0069580078125,1.00189208984375,5.316009521484375,-3.132781982421875,-2.459869384765625,1,1.0,1.0,2.0,1.0,55.00
2021-09-11 01:27:57.740,,,,,,,,,,,,,,,,,,,,,,,,,,,,,,,,,,,,,,/muse/elements/blink
2021-09-11 01:27:58.044,,,,,,,,,,,,,,,,,,,,,,,,,,,,,,,,,,,,,,/muse/elements/blink
2021-09-11 01:27:58.182,0.8963668,1.2808249,0.0,1.2610797,0.4396671,0.5782208,0.0,0.51359576,0.6027492,0.14779678,0.0,1.0106027,0.4644425,0.23748036,0.0,0.5631112,0.2449305,-0.34104592,0.0,0.37103292,745.42126,798.60803,170.43956,814.7253,723.2601,0.162109375,-0.00830078125,1.000732421875,5.570220947265625,-3.99261474609375,-2.1533203125,1,1.0,1.0,2.0,1.0,55.00
2021-09-11 01:27:58.702,0.8776389,1.2808249,0.0,1.2610797,0.44966283,0.5782208,0.0,0.51359576,0.56087464,0.14779678,0.0,1.0106027,0.39572543,0.23748036,0.0,0.5631112,0.22335704,-0.34104592,0.0,0.37103292,796.5934,850.18317,262.71063,849.7802,1172.1245,0.16815185546875,-0.0146484375,0.99871826171875,4.777679443359375,-4.2767333984375,-2.773895263671875,1,1.0,1.0,2.0,1.0,55.00
2021-09-11 01:27:59.222,1.0622069,1.2808249,0.0,1.218728,0.60913885,0.5782208,0.0,0.6802842,0.59911287,0.14779678,0.0,0.72859704,0.60687214,0.23748036,0.0,0.5087161,0.281859,-0.34104592,0.0,0.26914036,906.5934,842.9304,83.809525,853.00366,900.14655,0.171142578125,-0.01348876953125,0.99847412109375,5.802001953125,-4.246826171875,-2.6019287109375,1,1.0,1.0,2.0,1.0,55.00
2021-09-11 01:27:59.768,1.2489817,1.2808249,0.0,1.218728,0.68434584,0.5782208,0.0,0.6802842,0.59911287,0.14779678,0.0,0.72859704,0.58204204,0.23748036,0.0,0.5087161,0.27122864,-0.34104592,0.0,0.26914036,870.32965,822.7839,1170.5128,830.0366,832.0513,0.1744384765625,-0.00830078125,1.0015869140625,5.779571533203125,-5.1141357421875,-1.906585693359375,1,1.0,1.0,4.0,1.0,55.00
2021-09-11 01:28:00.285,1.0687,1.1071483,0.0,0.96408993,0.5509575,0.7628636,0.0,0.60251826,0.61821264,0.64083564,0.0,0.84511906,0.5152622,0.32921803,0.0,0.53702587,0.24971458,-0.18998133,0.0,0.14251919,898.5348,774.0293,1380.4396,845.7509,897.72894,0.1717529296875,-0.0064697265625,0.9971923828125,5.271148681640625,-3.985137939453125,-3.058013916015625,1,1.0,1.0,2.0,1.0,55.00
2021-09-11 01:28:00.798,0.8483172,1.23126,0.0,0.85451406,0.18619284,0.60694987,0.0,0.329142,0.68467927,0.6731723,0.0,0.9185609,0.48045105,0.23547773,0.0,0.59042346,0.32520267,-0.33793014,0.0,0.15434803,864.2857,845.34796,963.8095,856.63007,782.0879,0.1763916015625,-0.00885009765625,0.99481201171875,6.587066650390625,-3.327178955078125,-0.710296630859375,1,1.0,1.0,2.0,1.0,55.00
2021-09-11 01:28:01.307,0.91368777,1.23126,0.0,0.92598516,0.218104,0.60694987,0.0,0.27614686,0.733689,0.6731723,0.0,0.9247526,0.5006186,0.23547773,0.0,0.5918901,0.29741183,-0.33793014,0.0,0.19121468,869.12085,776.4469,1065.751,860.2564,915.4579,0.17132568359375,-0.0137939453125,0.99945068359375,4.6356201171875,-4.149627685546875,-3.36456298828125,1,1.0,1.0,2.0,1.0,55.00
2021-09-11 01:28:01.846,1.0421555,1.3202509,0.0,1.0910716,0.34414864,0.37618995,0.0,0.4484961,0.9253141,0.48944688,0.0,0.8025808,0.5236926,0.13418506,0.0,0.66691786,0.29805705,-0.5092888,0.0,0.22219403,931.5751,784.90845,1546.4469,863.47986,847.76556,0.16766357421875,-0.01104736328125,0.99945068359375,6.003875732421875,-3.028106689453125,-2.893524169921875,1,1.0,1.0,2.0,1.0,55.00
2021-09-11 01:28:02.040,,,,,,,,,,,,,,,,,,,,,,,,,,,,,,,,,,,,,,/muse/elements/blink
2021-09-11 01:28:02.355,1.0825362,1.2922727,0.0,1.1447759,0.4494345,0.3835372,0.0,0.5995196,0.9037842,0.47490337,0.0,0.6962749,0.55258626,0.08383386,0.0,0.7060681,0.20898975,-0.5911865,0.0,0.2162818,915.8608,803.8461,1488.022,878.3883,927.5458,0.1650390625,0.00103759765625,1.00244140625,4.882354736328125,-4.239349365234375,-3.349609375,1,1.0,1.0,2.0,1.0,55.00
2021-09-11 01:28:02.871,1.0744507,1.2922727,0.0,1.2569287,0.54108244,0.3835372,0.0,0.83813083,0.88524103,0.47490337,0.0,0.60947806,0.5254565,0.08383386,0.0,0.77023107,0.14965606,-0.5911865,0.0,0.17256936,885.64105,790.14655,1319.1941,844.1392,869.5238,0.1676025390625,0.0072021484375,0.99652099609375,6.08612060546875,-3.895416259765625,-0.8673095703125,1,1.0,1.0,2.0,1.0,55.00
2021-09-11 01:28:03.378,1.0744507,1.2922727,0.0,1.2569287,0.54108244,0.3835372,0.0,0.83813083,0.88524103,0.47490337,0.0,0.60947806,0.5254565,0.08383386,0.0,0.77023107,0.14965606,-0.5911865,0.0,0.17256936,764.7619,815.9341,404.94507,782.0879,708.7546,0.156982421875,-0.0018310546875,0.99725341796875,5.794525146484375,-3.536529541015625,-2.76641845703125,1,1.0,1.0,2.0,1.0,55.00
2021-09-11 01:28:03.906,1.0744507,1.33128,0.0,1.116074,0.54108244,1.3656219,0.0,0.66681015,0.88524103,0.85787225,0.0,0.68065625,0.5254565,0.5305903,0.0,0.59912664,0.14965606,0.022661285,0.0,0.26723278,893.69965,785.31134,1380.0366,842.1245,993.6264,0.18170166015625,-0.001220703125,0.99847412109375,4.149627685546875,-6.123504638671875,-5.241241455078125,1,1.0,1.0,2.0,1.0,55.00
2021-09-11 01:28:04.411,0.6993898,1.33128,0.0,1.0559598,0.3641186,1.3656219,0.0,0.69385916,0.89598674,0.85787225,0.0,1.102361,0.7362178,0.5305903,0.0,0.6755197,0.20810097,0.022661285,0.0,0.3172283,759.5238,799.81683,895.7143,783.69965,766.3736,0.161376953125,-0.03167724609375,0.99090576171875,4.029998779296875,-1.3458251953125,-3.940277099609375,1,1.0,1.0,2.0,1.0,55.00
2021-09-11 01:28:04.952,0.752164,0.9536388,0.0,0.98218066,0.29058418,0.9803721,0.0,0.6550765,0.91016465,0.774832,0.0,1.1458138,0.7608245,0.6130853,0.0,0.73947954,0.40615088,0.1877218,0.0,0.30448997,830.0366,750.65936,947.6923,815.5311,676.52014,0.12835693359375,-0.03118896484375,1.00909423828125,4.91973876953125,-1.9140625,-2.332763671875,1,1.0,1.0,2.0,1.0,55.00
2021-09-11 01:28:05.002,,,,,,,,,,,,,,,,,,,,,,,,,,,,,,,,,,,,,,/muse/elements/blink
2021-09-11 01:28:05.454,0.746783,0.92490107,0.0,1.0462794,0.28603742,0.8557017,0.0,0.6467072,0.91016465,0.740008,0.0,1.1458138,0.76985055,0.6214606,0.0,0.76983815,0.4314654,0.21919948,0.0,0.32306412,890.87915,796.1905,1218.0586,828.8278,873.1502,0.13861083984375,-0.021240234375,1.0047607421875,8.620758056640625,-4.605712890625,1.667327880859375,1,1.0,1.0,2.0,1.0,55.00
2021-09-11 01:28:05.992,0.8229313,0.92490107,0.0,1.0894655,0.14353378,0.8557017,0.0,0.5739765,0.7882627,0.740008,0.0,1.0971311,0.81363165,0.6214606,0.0,0.8042293,0.6064969,0.21919948,0.0,0.29216397,751.06226,763.1502,706.337,774.83514,737.3626,0.1480712890625,-0.0177001953125,0.99639892578125,6.362762451171875,-5.1739501953125,-4.104766845703125,1,1.0,1.0,2.0,1.0,55.00
2021-09-11 01:28:06.518,0.8229313,0.92490107,0.0,1.1273533,0.14353378,0.8557017,0.0,0.070156656,0.7882627,0.740008,0.0,0.21299845,0.81363165,0.6214606,0.0,0.55190104,0.6064969,0.21919948,0.0,0.28033006,836.8865,771.6117,794.17584,801.02563,821.5751,0.153076171875,-0.03167724609375,0.9959716796875,5.630035400390625,-2.758941650390625,-2.40753173828125,1,1.0,1.0,2.0,1.0,55.00
2021-09-11 01:28:07.062,0.8229313,0.92490107,0.0,1.0091476,0.14353378,0.8557017,0.0,0.23006941,0.7882627,0.740008,0.0,0.7479322,0.81363165,0.6214606,0.0,0.52429026,0.6064969,0.21919948,0.0,0.13276143,790.14655,781.685,888.0586,795.78754,839.707,0.14874267578125,-0.0118408203125,1.0045166015625,6.033782958984375,-4.762725830078125,-1.667327880859375,1,1.0,1.0,2.0,1.0,55.00
2021-09-11 01:28:07.570,0.4652771,0.687757,0.0,0.9798982,0.26399684,0.18102159,0.0,0.37556344,0.8729132,0.5762257,0.0,0.8168102,0.42870533,0.42577627,0.0,0.5589811,-0.20209399,-0.3769099,0.0,0.074822366,703.91943,703.5165,354.1758,751.4652,546.3736,0.1546630859375,-0.025634765625,1.00042724609375,5.12908935546875,-4.179534912109375,-3.072967529296875,1,1.0,1.0,2.0,1.0,55.00
2021-09-11 01:28:08.083,0.69584,0.687757,0.0,0.8576246,0.27411222,0.18102159,0.0,0.52083504,0.9694521,0.5762257,0.0,1.0529778,0.6340898,0.42577627,0.0,0.6561712,-0.14718468,-0.3769099,0.0,-0.008918033,835.2747,846.9597,952.9304,823.5897,963.8095,0.15753173828125,-0.0233154296875,0.99871826171875,5.30853271484375,-3.865509033203125,-2.691650390625,1,1.0,1.0,2.0,1.0,55.00
2021-09-11 01:28:08.601,0.856394,0.6011987,0.0,0.93208086,0.3030831,0.23529719,0.0,0.5157952,0.9533672,0.5762257,0.0,1.0434581,0.6711903,0.45539215,0.0,0.7307128,-0.07080227,-0.382916,0.0,0.110044524,904.9817,834.0659,1531.5385,837.28937,937.2161,0.15386962890625,-0.01641845703125,1.00555419921875,5.929107666015625,-3.33465576171875,-1.45050048828125,1,1.0,1.0,2.0,1.0,55.00
2021-09-11 01:28:09.125,0.9143226,0.6684935,0.0,0.8929281,0.40105084,0.27470088,0.0,0.4696655,0.9261444,0.5685112,0.0,1.1260579,0.7046449,0.4453865,0.0,0.7635437,0.015859976,-0.38995516,0.0,0.19916971,900.14655,777.6557,1059.7069,870.7326,826.4103,0.15472412109375,-0.01519775390625,1.0081787109375,5.271148681640625,-3.27484130859375,-3.18511962890625,1,1.0,1.0,2.0,1.0,55.00
2021-09-11 01:28:09.175,,,,,,,,,,,,,,,,,,,,,,,,,,,,,,,,,,,,,,/muse/elements/blink
2021-09-11 01:28:09.652,0.86073154,0.6684935,0.0,0.8915483,0.46735474,0.27470088,0.0,0.28228083,0.6614199,0.5685112,0.0,0.9257201,0.55938995,0.4453865,0.0,0.70593,0.07778138,-0.38995516,0.0,0.26276538,748.24176,763.1502,478.6813,785.31134,708.3516,0.1671142578125,-0.02130126953125,1.0001220703125,6.57958984375,-5.09918212890625,-2.250518798828125,1,1.0,1.0,2.0,1.0,55.00
2021-09-11 01:28:10.180,0.71976805,0.6684935,0.0,0.7947805,0.6131765,0.27470088,0.0,0.29067028,0.5937312,0.5685112,0.0,0.8975493,0.5866262,0.4453865,0.0,0.69386566,0.12373446,-0.38995516,0.0,0.26905116,839.304,824.3956,1074.6154,830.4396,697.8755,0.1571044921875,-0.01953125,1.00177001953125,6.38519287109375,-3.431854248046875,-1.353302001953125,1,1.0,1.0,2.0,1.0,55.00
2021-09-11 01:28:10.700,0.60309917,0.6684935,0.0,0.084594734,0.8578697,0.27470088,0.0,0.44665763,1.1605557,0.5685112,0.0,1.0736065,0.84104854,0.4453865,0.0,1.0975072,0.07691635,-0.38995516,0.0,-0.0020604853,757.9121,821.5751,842.52747,790.54944,872.74725,0.16015625,-0.02020263671875,1.00018310546875,5.734710693359375,-4.0673828125,-1.614990234375,1,1.0,1.0,2.0,1.0,55.00
2021-09-11 01:28:11.217,0.40145728,0.6684935,0.0,-0.016467333,0.6734084,0.27470088,0.0,0.35588625,1.4473587,0.5685112,0.0,1.0787529,0.8735983,0.4453865,0.0,0.9617475,0.055105127,-0.38995516,0.0,0.097965725,890.07324,798.20514,1319.1941,842.52747,993.22345,0.15655517578125,-0.020263671875,0.9993896484375,7.708587646484375,-3.521575927734375,-0.904693603515625,1,1.0,1.0,2.0,1.0,55.00
2021-09-11 01:28:11.740,0.37748438,0.8278517,0.0,0.2538197,0.62336046,0.8155488,0.0,0.22931251,1.4520428,1.017743,0.0,1.0892632,0.81242543,0.5866412,0.0,0.8869418,0.09040927,0.0033720767,0.0,0.11583887,800.2198,804.2491,1131.0256,797.8022,771.2088,0.15692138671875,0.01629638671875,1.00360107421875,10.086212158203125,-3.828125,2.213134765625,1,1.0,1.0,2.0,1.0,55.00
2021-09-11 01:28:12.254,0.15143348,0.7947289,0.0,0.34346312,0.3304743,0.62981045,0.0,-0.013809199,1.448274,1.017743,0.0,1.0069047,0.7199853,0.44517344,0.0,0.66975945,0.07569387,-0.108805425,0.0,0.17054018,890.07324,765.9707,1073.0037,813.1135,1259.1575,0.15948486328125,0.03851318359375,1.0068359375,5.21881103515625,-4.000091552734375,-2.64678955078125,1,1.0,1.0,2.0,1.0,55.00
2021-09-11 01:28:12.793,0.33757746,0.75388366,0.0,0.4865969,0.23301375,0.5562126,0.0,-0.13347636,1.344879,0.92293805,0.0,0.9131712,0.56639993,0.28925154,0.0,0.5569978,0.1195209,-0.11744014,0.0,0.1639977,844.5421,727.28937,1208.3883,793.36993,762.3443,0.1591796875,0.0257568359375,1.00054931640625,0.0897216796875,-3.648681640625,-6.213226318359375,1,1.0,1.0,2.0,1.0,55.00
2021-09-11 01:28:13.298,0.3307912,0.7479704,0.0,0.3521218,-0.043523397,-0.0026586335,0.0,-0.044405937,0.6952644,0.38376322,0.0,0.82464457,0.48393112,0.07769543,0.0,0.438184,0.07371161,-0.34635857,0.0,0.07507348,907.8022,883.6264,1452.5641,848.5714,972.27106,0.15679931640625,-0.01654052734375,1.00225830078125,7.035675048828125,-5.031890869140625,-3.24493408203125,1,1.0,1.0,2.0,1.0,55.00
2021-09-11 01:28:13.845,0.5014644,0.7479704,0.0,0.50720716,-0.01198719,-0.0026586335,0.0,-0.040633395,0.54256934,0.38376322,0.0,0.90475214,0.5029637,0.07769543,0.0,0.39288783,0.07389059,-0.34635857,0.0,0.003204477,738.97437,829.6337,432.34433,788.93774,692.6374,0.156494140625,0.00311279296875,1.00408935546875,6.841278076171875,-4.388885498046875,-1.1663818359375,1,1.0,1.0,2.0,1.0,55.00
2021-09-11 01:28:14.136,,,,,,,,,,,,,,,,,,,,,,,,,,,,,,,,,,,,,,/muse/elements/blink
2021-09-11 01:28:14.370,0.47214243,0.7479704,0.0,0.4876726,-0.007273914,-0.0026586335,0.0,-0.056214686,0.27049974,0.38376322,0.0,0.8158856,0.48141778,0.07769543,0.0,0.42261764,0.021705233,-0.34635857,0.0,-0.08660938,786.9231,821.1722,517.76556,799.81683,751.06226,0.15386962890625,0.01220703125,1.00201416015625,2.743988037109375,-4.433746337890625,-4.673004150390625,1,1.0,1.0,2.0,1.0,60.00
2021-09-11 01:28:14.698,,,,,,,,,,,,,,,,,,,,,,,,,,,,,,,,,,,,,,/muse/elements/blink
2021-09-11 01:28:14.876,0.6025208,0.7479704,0.0,0.7506246,0.075273596,-0.0026586335,0.0,-0.081057094,0.13073753,0.38376322,0.0,0.80943274,0.4801206,0.07769543,0.0,0.4307773,0.036777325,-0.34635857,0.0,-0.053249132,709.5604,790.14655,265.53113,788.93774,611.6484,0.16278076171875,-0.03668212890625,0.99981689453125,0.112152099609375,-3.132781982421875,-6.59454345703125,1,1.0,1.0,2.0,1.0,60.00
2021-09-11 01:28:15.394,0.5889409,0.7479704,0.0,0.7506246,0.057470217,-0.0026586335,0.0,-0.081057094,0.002187299,0.38376322,0.0,0.80943274,0.40658823,0.07769543,0.0,0.4307773,0.030424232,-0.34635857,0.0,-0.053249132,742.6007,749.45056,818.7546,790.14655,738.1685,0.15240478515625,-0.07989501953125,1.00030517578125,4.56085205078125,-2.4224853515625,-3.132781982421875,1,1.0,1.0,2.0,1.0,60.00
2021-09-11 01:28:15.924,0.5889409,0.7479704,0.0,0.7506246,0.057470217,-0.0026586335,0.0,-0.081057094,0.002187299,0.38376322,0.0,0.80943274,0.40658823,0.07769543,0.0,0.4307773,0.030424232,-0.34635857,0.0,-0.053249132,834.4689,795.38464,789.7436,814.7253,758.315,0.1405029296875,-0.0616455078125,1.00177001953125,8.620758056640625,-2.7215576171875,0.680389404296875,1,1.0,1.0,2.0,1.0,60.00
2021-09-11 01:28:16.333,,,,,,,,,,,,,,,,,,,,,,,,,,,,,,,,,,,,,,/muse/elements/blink
2021-09-11 01:28:16.429,0.63644123,0.7479704,0.0,0.626688,0.39859214,-0.0026586335,0.0,0.3080001,0.68413186,0.38376322,0.0,0.9028103,0.809335,0.07769543,0.0,0.71050406,0.28166598,-0.34635857,0.0,0.21300583,883.6264,760.32965,1499.7069,823.1868,971.8681,0.13507080078125,-0.02142333984375,1.00311279296875,5.9515380859375,-3.895416259765625,-1.308441162109375,1,1.0,1.0,2.0,1.0,60.00
2021-09-11 01:28:16.942,0.5390292,0.7479704,0.0,0.67894924,0.54491633,-0.0026586335,0.0,0.4674562,0.7400127,0.38376322,0.0,1.0142614,0.8523529,0.07769543,0.0,0.80307937,0.33845803,-0.34635857,0.0,0.13477726,823.9927,785.31134,979.5238,809.0842,730.9158,0.13958740234375,-0.0203857421875,1.00506591796875,6.123504638671875,-3.327178955078125,-2.639312744140625,1,1.0,1.0,2.0,1.0,60.00
2021-09-11 01:28:17.468,0.38740447,0.7479704,0.0,0.5917341,0.501502,-0.0026586335,0.0,0.4483602,0.65440804,0.38376322,0.0,1.0167825,0.79589087,0.07769543,0.0,0.8614196,0.3541543,-0.34635857,0.0,0.063396424,721.2454,780.4762,317.10623,763.1502,582.6374,0.13616943359375,-0.01849365234375,1.0050048828125,6.422576904296875,-3.39447021484375,-1.712188720703125,1,1.0,1.0,2.0,1.0,60.00
2021-09-11 01:28:17.982,0.2600847,1.4222786,0.0,0.61063015,0.4528388,1.0477314,0.0,0.43819496,0.7357817,1.0386418,0.0,0.9826538,0.8413517,0.44226763,0.0,0.8924575,0.35358715,-0.052685183,0.0,0.017082542,721.2454,795.38464,0.0,786.52014,1167.2894,0.1336669921875,-0.01727294921875,1.00567626953125,5.809478759765625,-3.521575927734375,-2.714080810546875,1,1.0,1.0,2.0,1.0,60.00
2021-09-11 01:28:18.506,0.4838316,1.3607067,0.0,0.7008808,0.39069593,0.91921115,0.0,0.4433415,0.82522964,1.0508183,0.0,0.8062041,0.7923302,0.4118133,0.0,0.8219505,0.26548508,-0.17015117,0.0,0.03308893,774.43225,690.2198,950.9158,774.43225,819.15753,0.13421630859375,-0.0169677734375,1.001953125,5.540313720703125,-3.805694580078125,-2.64678955078125,1,1.0,1.0,2.0,1.0,60.00
2021-09-11 01:28:19.040,1.0053402,1.3607067,0.0,0.9228232,0.44974267,0.91921115,0.0,0.5637039,0.8664263,1.0508183,0.0,0.8062041,0.7706475,0.4118133,0.0,0.7849631,0.123669066,-0.17015117,0.0,0.038756862,886.04395,779.67035,1389.3041,831.6484,898.1319,0.1343994140625,-0.01458740234375,1.00152587890625,5.794525146484375,-4.3963623046875,-1.98883056640625,1,1.0,1.0,2.0,1.0,60.00
2021-09-11 01:28:19.567,1.16509,1.3120546,0.0,1.053619,0.4549962,0.60526276,0.0,0.6297593,0.82257,0.80773896,0.0,0.7620488,0.65360016,0.38441217,0.0,0.6459882,0.018986365,-0.4240519,0.0,0.0056903195,837.6923,1096.7766,1285.751,821.978,681.3553,0.1376953125,-0.022216796875,1.00616455078125,5.435638427734375,-3.775787353515625,-2.594451904296875,1,1.0,1.0,2.0,1.0,60.00
2021-09-11 01:28:20.071,1.1891835,1.3120546,0.0,0.9928709,0.42946783,0.60526276,0.0,0.3665779,0.8329742,0.80773896,0.0,0.61102813,0.48553574,0.38441217,0.0,0.48058605,-0.051856287,-0.4240519,0.0,0.08306888,920.696,834.0659,1373.5897,853.00366,1203.1501,0.14404296875,-0.017578125,1.0040283203125,6.153411865234375,-4.62066650390625,-3.297271728515625,1,1.0,1.0,2.0,1.0,60.00
2021-09-11 01:28:20.612,0.8446076,1.3120546,0.0,0.46652138,0.30809698,0.60526276,0.0,-0.1219832,0.49688086,0.80773896,0.0,0.31541422,0.2898924,0.38441217,0.0,0.40095088,-0.12312744,-0.4240519,0.0,0.048564866,738.97437,825.2015,321.13553,786.1172,674.10254,0.13873291015625,-0.01708984375,1.0062255859375,5.3533935546875,-3.648681640625,-2.564544677734375,1,1.0,1.0,2.0,1.0,60.00
2021-09-11 01:28:21.132,0.5825063,1.3120546,0.0,0.34847674,0.20790882,0.60526276,0.0,0.07928091,0.45849082,0.80773896,0.0,0.58871007,0.29711798,0.38441217,0.0,0.4216979,-0.09779037,-0.4240519,0.0,0.09043399,774.43225,813.5165,595.5311,790.9524,642.674,0.13861083984375,-0.01605224609375,1.00262451171875,5.390777587890625,-3.072967529296875,-2.325286865234375,1,1.0,1.0,2.0,1.0,60.00
2021-09-11 01:28:21.657,0.41419283,1.0723515,0.0,0.20125309,0.017393205,0.21009879,0.0,0.120558284,0.42707852,0.24975973,0.0,0.6447261,0.2782474,0.23088594,0.0,0.43361524,0.016972033,-0.051317986,0.0,0.09571028,835.6777,800.2198,1043.5897,805.4579,871.13556,0.14031982421875,-0.0179443359375,0.99981689453125,6.392669677734375,-3.641204833984375,-1.5252685546875,1,1.0,1.0,2.0,1.0,60.00
2021-09-11 01:28:22.182,0.42548344,0.8801334,0.0,0.32096797,0.04868964,0.23821913,0.0,0.44067374,0.5275778,0.41653803,0.0,0.88612217,0.45646232,0.3526301,0.0,0.59782064,0.15754949,-0.1278035,0.0,0.2850673,765.56775,780.07324,634.21246,794.57874,672.8938,0.1414794921875,-0.0250244140625,1.00384521484375,5.3533935546875,-3.596343994140625,-2.459869384765625,1,1.0,1.0,2.0,1.0,60.00
2021-09-11 01:28:22.713,0.42273453,0.85755354,0.0,0.366554,0.053381614,0.20337738,0.0,0.41688162,0.44545904,0.46259412,0.0,0.88955426,0.55106115,0.35357368,0.0,0.6321324,0.16658977,-0.16689385,0.0,0.30006585,695.8608,774.83514,229.67033,768.3883,680.14655,0.14569091796875,-0.0174560546875,0.998779296875,4.71038818359375,-4.366455078125,-1.55517578125,1,1.0,1.0,2.0,1.0,60.00
2021-09-11 01:28:23.225,0.75995535,0.9050141,0.0,0.58244133,0.17386514,0.30764648,0.0,0.4420888,0.50202674,0.8318526,0.0,0.9253508,0.6927227,0.4372778,0.0,0.6787357,0.21350054,-0.21098554,0.0,0.31286567,709.5604,712.381,408.1685,773.6264,622.9304,0.1519775390625,-0.02679443359375,0.99932861328125,6.018829345703125,-3.536529541015625,0.112152099609375,1,1.0,1.0,2.0,1.0,60.00
2021-09-11 01:28:23.754,0.8319495,1.1741115,0.0,0.6434017,0.18157254,0.35082063,0.0,0.18787906,0.45969903,0.809498,0.0,0.6643079,0.7127309,0.40087965,0.0,0.57874703,0.19552171,-0.1751717,0.0,0.19641812,838.49817,847.76556,1029.0842,823.5897,974.2857,0.13323974609375,-0.01055908203125,1.0048828125,7.237548828125,-4.05242919921875,-1.338348388671875,1,1.0,1.0,2.0,1.0,60.00
2021-09-11 01:28:24.307,1.1149644,1.1741115,0.0,0.8823094,0.21659209,0.35082063,0.0,0.17305915,0.3987053,0.809498,0.0,0.63247955,0.80969083,0.40087965,0.0,0.5728746,0.34944332,-0.1751717,0.0,0.16347861,897.72894,827.619,1591.1721,838.0952,911.8315,0.1429443359375,-0.0198974609375,1.00140380859375,5.084228515625,-3.84307861328125,-3.222503662109375,1,1.0,1.0,2.0,1.0,60.00
2021-09-11 01:28:24.838,0.7866151,1.1741115,0.0,0.7349383,0.03354015,0.35082063,0.0,0.50796187,0.27571008,0.809498,0.0,0.51534295,0.5504244,0.40087965,0.0,0.47878727,0.009461858,-0.1751717,0.0,-0.12680058,860.65936,831.6484,1460.6227,846.1539,826.8132,0.141845703125,-0.0191650390625,1.0023193359375,5.57769775390625,-4.553375244140625,-2.504730224609375,1,1.0,1.0,2.0,1.0,55.00
2021-09-11 01:28:25.361,0.5686186,1.1741115,0.0,0.73976934,0.03232712,0.35082063,0.0,0.40332374,0.5119754,0.809498,0.0,0.6926771,0.6093978,0.40087965,0.0,0.62490386,0.053763214,-0.1751717,0.0,-0.08625836,920.696,880.40295,1579.0842,860.65936,989.59705,0.14166259765625,-0.01983642578125,1.002685546875,5.90667724609375,-4.42626953125,-2.87109375,1,1.0,1.0,4.0,1.0,55.00
2021-09-11 01:28:25.876,0.61932224,1.1741115,0.0,0.76518804,0.23181789,0.35082063,0.0,0.35039032,0.53319067,0.809498,0.0,0.75353223,0.60494196,0.40087965,0.0,0.73491067,0.014375058,-0.1751717,0.0,-0.08357037,856.2271,870.7326,1125.7876,818.3516,724.87177,0.144287109375,-0.02764892578125,1.00225830078125,5.465545654296875,-4.18701171875,-2.355194091796875,1,1.0,1.0,4.0,1.0,55.00
2021-09-11 01:28:26.055,,,,,,,,,,,,,,,,,,,,,,,,,,,,,,,,,,,,,,/muse/elements/blink
2021-09-11 01:28:26.380,0.53940845,1.1741115,0.0,0.8075908,0.33421257,0.35082063,0.0,0.23713875,0.52965444,0.809498,0.0,0.74392176,0.62054837,0.40087965,0.0,0.8311167,0.013381728,-0.1751717,0.0,-0.053863805,896.9231,802.6374,1207.1794,871.13556,920.293,0.14276123046875,-0.01617431640625,1.00653076171875,6.437530517578125,-3.69354248046875,-2.04864501953125,1,1.0,1.0,4.0,1.0,55.00
2021-09-11 01:28:26.894,0.7058188,1.1741115,0.0,0.81195545,0.47151887,0.35082063,0.0,0.22006465,0.3757779,0.809498,0.0,0.6495179,0.5958907,0.40087965,0.0,0.8955382,-0.07706973,-0.1751717,0.0,-0.0782438,713.9927,805.4579,0.0,787.72894,1128.608,0.1455078125,-0.01873779296875,1.01312255859375,6.32537841796875,-4.732818603515625,-1.682281494140625,1,1.0,1.0,2.0,1.0,55.00
2021-09-11 01:28:27.038,,,,,,,,,,,,,,,,,,,,,,,,,,,,,,,,,,,,,,/muse/elements/blink
2021-09-11 01:28:27.219,,,,,,,,,,,,,,,,,,,,,,,,,,,,,,,,,,,,,,/muse/elements/blink
2021-09-11 01:28:27.439,0.7440598,1.1741115,0.0,0.79539317,0.47267902,0.35082063,0.0,0.2373659,0.29846498,0.809498,0.0,0.6299443,0.5963963,0.40087965,0.0,0.91985,-0.08396433,-0.1751717,0.0,-0.082737036,861.06226,729.304,1413.0769,813.1135,763.95605,0.15716552734375,-0.015869140625,0.983154296875,7.10296630859375,-6.519775390625,-0.28411865234375,1,1.0,1.0,2.0,1.0,55.00
2021-09-11 01:28:27.951,1.5787425,1.1741115,0.0,0.79539317,1.1263174,0.35082063,0.0,0.2373659,1.4713228,0.809498,0.0,0.6299443,1.1100683,0.40087965,0.0,0.91985,0.39863876,-0.1751717,0.0,-0.082737036,918.2784,766.77655,1302.2711,863.0769,1195.0916,0.19207763671875,-0.02947998046875,0.99737548828125,3.626251220703125,-4.007568359375,-0.411224365234375,1,1.0,1.0,2.0,1.0,55.00
